PE IR                   SPECTRUM    ASCII       PEDS        1.60        
  -1
FR220771.ASC
22/05/31
15:44:19.00
22/05/31
15:44:19.00
Administrator
Materail branco removido com auxilio de um estilete na superficie da Amostra denominada A 3 -Deriva - sem nenhum tratamento - IR/UATR 80N - Vitor
550.000000
20









FRONTIER FT-IR/NIR,CPU32 MAIN 00.09.1072 09-JANUARY-2014 12:55:01
MIR TGS
MIR
OPTKBR
100262
0.200000

4.000000
FORTE
RAZ„O
ESPECTRO
MAGNITUDE
UNIVERSAL ATR
DUPLO

COMBINADO


0


#HDR
-1
-1
#GR
CM-1
%T
0.00002384185791015625
0.0
4000.000000
-1.000000
3451
8
97.232493
40.804558
#DATA
4000.000000	93.498786 
3999.000000	93.501457 
3998.000000	93.505147 
3997.000000	93.509660 
3996.000000	93.514231 
3995.000000	93.519086 
3994.000000	93.524163 
3993.000000	93.528976 
3992.000000	93.533263 
3991.000000	93.536738 
3990.000000	93.538902 
3989.000000	93.539805 
3988.000000	93.540151 
3987.000000	93.541514 
3986.000000	93.544525 
3985.000000	93.547805 
3984.000000	93.549569 
3983.000000	93.549364 
3982.000000	93.549160 
3981.000000	93.551265 
3980.000000	93.556322 
3979.000000	93.563323 
3978.000000	93.570608 
3977.000000	93.576586 
3976.000000	93.579766 
3975.000000	93.579395 
3974.000000	93.576467 
3973.000000	93.573546 
3972.000000	93.572910 
3971.000000	93.575310 
3970.000000	93.579893 
3969.000000	93.585256 
3968.000000	93.590355 
3967.000000	93.595020 
3966.000000	93.600094 
3965.000000	93.607030 
3964.000000	93.616007 
3963.000000	93.625446 
3962.000000	93.631834 
3961.000000	93.631829 
3960.000000	93.626242 
3959.000000	93.619141 
3958.000000	93.615061 
3957.000000	93.615345 
3956.000000	93.616931 
3955.000000	93.616691 
3954.000000	93.614022 
3953.000000	93.611413 
3952.000000	93.613246 
3951.000000	93.622550 
3950.000000	93.639272 
3949.000000	93.658161 
3948.000000	93.671157 
3947.000000	93.672692 
3946.000000	93.661241 
3945.000000	93.642189 
3944.000000	93.626696 
3943.000000	93.624156 
3942.000000	93.633072 
3941.000000	93.642951 
3940.000000	93.647737 
3939.000000	93.649760 
3938.000000	93.655017 
3937.000000	93.666394 
3936.000000	93.678723 
3935.000000	93.687741 
3934.000000	93.695245 
3933.000000	93.703440 
3932.000000	93.708115 
3931.000000	93.701166 
3930.000000	93.683814 
3929.000000	93.663886 
3928.000000	93.646687 
3927.000000	93.635629 
3926.000000	93.637795 
3925.000000	93.656750 
3924.000000	93.681219 
3923.000000	93.694836 
3922.000000	93.693319 
3921.000000	93.689998 
3920.000000	93.699081 
3919.000000	93.719007 
3918.000000	93.736977 
3917.000000	93.741799 
3916.000000	93.734449 
3915.000000	93.722627 
3914.000000	93.710359 
3913.000000	93.703761 
3912.000000	93.706911 
3911.000000	93.717513 
3910.000000	93.727591 
3909.000000	93.731547 
3908.000000	93.729353 
3907.000000	93.727690 
3906.000000	93.735738 
3905.000000	93.762088 
3904.000000	93.799464 
3903.000000	93.822035 
3902.000000	93.810508 
3901.000000	93.772772 
3900.000000	93.737221 
3899.000000	93.726146 
3898.000000	93.737519 
3897.000000	93.753938 
3896.000000	93.765674 
3895.000000	93.775203 
3894.000000	93.783295 
3893.000000	93.790936 
3892.000000	93.797467 
3891.000000	93.807612 
3890.000000	93.823594 
3889.000000	93.828535 
3888.000000	93.811526 
3887.000000	93.790494 
3886.000000	93.795052 
3885.000000	93.821614 
3884.000000	93.829159 
3883.000000	93.793562 
3882.000000	93.736241 
3881.000000	93.704685 
3880.000000	93.721689 
3879.000000	93.762786 
3878.000000	93.790368 
3877.000000	93.784302 
3876.000000	93.761521 
3875.000000	93.761691 
3874.000000	93.796808 
3873.000000	93.836309 
3872.000000	93.845917 
3871.000000	93.834434 
3870.000000	93.841400 
3869.000000	93.872701 
3868.000000	93.894213 
3867.000000	93.882366 
3866.000000	93.857864 
3865.000000	93.860133 
3864.000000	93.883800 
3863.000000	93.894198 
3862.000000	93.884704 
3861.000000	93.876706 
3860.000000	93.882223 
3859.000000	93.900030 
3858.000000	93.921603 
3857.000000	93.936220 
3856.000000	93.933334 
3855.000000	93.915718 
3854.000000	93.918074 
3853.000000	93.943659 
3852.000000	93.945625 
3851.000000	93.921766 
3850.000000	93.895452 
3849.000000	93.886849 
3848.000000	93.896662 
3847.000000	93.909632 
3846.000000	93.914540 
3845.000000	93.911002 
3844.000000	93.906381 
3843.000000	93.906036 
3842.000000	93.906524 
3841.000000	93.902187 
3840.000000	93.890936 
3839.000000	93.879866 
3838.000000	93.874261 
3837.000000	93.875683 
3836.000000	93.882955 
3835.000000	93.889154 
3834.000000	93.891183 
3833.000000	93.895093 
3832.000000	93.907887 
3831.000000	93.928101 
3830.000000	93.942912 
3829.000000	93.941823 
3828.000000	93.930893 
3827.000000	93.931713 
3826.000000	93.956150 
3825.000000	93.987093 
3824.000000	93.994239 
3823.000000	93.970345 
3822.000000	93.953033 
3821.000000	93.974577 
3820.000000	94.004705 
3819.000000	94.000929 
3818.000000	93.956484 
3817.000000	93.912833 
3816.000000	93.915384 
3815.000000	93.951873 
3814.000000	93.976132 
3813.000000	93.973296 
3812.000000	93.968564 
3811.000000	93.986032 
3810.000000	94.015914 
3809.000000	94.033349 
3808.000000	94.034105 
3807.000000	94.039363 
3806.000000	94.053154 
3805.000000	94.047878 
3804.000000	94.006432 
3803.000000	93.954025 
3802.000000	93.940065 
3801.000000	93.969093 
3800.000000	93.994027 
3799.000000	93.986998 
3798.000000	93.963420 
3797.000000	93.957439 
3796.000000	93.982018 
3795.000000	94.011478 
3794.000000	94.022110 
3793.000000	94.015652 
3792.000000	94.010705 
3791.000000	94.016473 
3790.000000	94.026872 
3789.000000	94.034859 
3788.000000	94.038808 
3787.000000	94.039760 
3786.000000	94.039442 
3785.000000	94.039291 
3784.000000	94.038403 
3783.000000	94.032693 
3782.000000	94.017108 
3781.000000	93.999433 
3780.000000	93.997667 
3779.000000	94.016044 
3778.000000	94.037899 
3777.000000	94.046658 
3776.000000	94.044695 
3775.000000	94.047835 
3774.000000	94.063354 
3773.000000	94.081305 
3772.000000	94.088267 
3771.000000	94.089652 
3770.000000	94.096427 
3769.000000	94.103606 
3768.000000	94.095619 
3767.000000	94.076767 
3766.000000	94.069539 
3765.000000	94.087381 
3764.000000	94.114653 
3763.000000	94.122220 
3762.000000	94.103694 
3761.000000	94.083453 
3760.000000	94.083960 
3759.000000	94.098688 
3758.000000	94.109333 
3757.000000	94.119991 
3756.000000	94.136229 
3755.000000	94.154170 
3754.000000	94.174832 
3753.000000	94.216623 
3752.000000	94.286153 
3751.000000	94.347456 
3750.000000	94.362073 
3749.000000	94.347763 
3748.000000	94.324519 
3747.000000	94.275448 
3746.000000	94.197017 
3745.000000	94.136328 
3744.000000	94.140895 
3743.000000	94.182134 
3742.000000	94.205639 
3741.000000	94.208519 
3740.000000	94.216810 
3739.000000	94.235491 
3738.000000	94.240811 
3737.000000	94.226124 
3736.000000	94.212297 
3735.000000	94.203717 
3734.000000	94.195002 
3733.000000	94.195598 
3732.000000	94.212163 
3731.000000	94.236673 
3730.000000	94.252536 
3729.000000	94.251231 
3728.000000	94.244473 
3727.000000	94.249733 
3726.000000	94.264363 
3725.000000	94.263350 
3724.000000	94.236679 
3723.000000	94.202609 
3722.000000	94.182758 
3721.000000	94.179634 
3720.000000	94.182530 
3719.000000	94.187430 
3718.000000	94.200327 
3717.000000	94.225423 
3716.000000	94.252462 
3715.000000	94.267593 
3714.000000	94.270476 
3713.000000	94.273986 
3712.000000	94.278432 
3711.000000	94.266156 
3710.000000	94.236796 
3709.000000	94.216172 
3708.000000	94.216845 
3707.000000	94.231066 
3706.000000	94.245657 
3705.000000	94.247703 
3704.000000	94.234173 
3703.000000	94.217285 
3702.000000	94.212651 
3701.000000	94.223032 
3700.000000	94.235537 
3699.000000	94.238635 
3698.000000	94.233121 
3697.000000	94.229930 
3696.000000	94.231770 
3695.000000	94.226090 
3694.000000	94.201676 
3693.000000	94.161838 
3692.000000	94.119851 
3691.000000	94.085267 
3690.000000	94.057345 
3689.000000	94.028356 
3688.000000	93.998556 
3687.000000	93.971497 
3686.000000	93.940559 
3685.000000	93.901467 
3684.000000	93.856829 
3683.000000	93.794224 
3682.000000	93.668560 
3681.000000	93.420982 
3680.000000	93.019242 
3679.000000	92.473723 
3678.000000	91.843813 
3677.000000	91.275626 
3676.000000	91.025194 
3675.000000	91.239357 
3674.000000	91.720813 
3673.000000	92.186023 
3672.000000	92.552087 
3671.000000	92.874067 
3670.000000	93.179319 
3669.000000	93.409184 
3668.000000	93.532047 
3667.000000	93.584828 
3666.000000	93.611018 
3665.000000	93.630251 
3664.000000	93.640637 
3663.000000	93.634460 
3662.000000	93.616001 
3661.000000	93.602936 
3660.000000	93.608882 
3659.000000	93.630129 
3658.000000	93.657501 
3657.000000	93.688727 
3656.000000	93.722018 
3655.000000	93.741747 
3654.000000	93.729979 
3653.000000	93.685544 
3652.000000	93.637872 
3651.000000	93.632755 
3650.000000	93.676791 
3649.000000	93.693683 
3648.000000	93.642752 
3647.000000	93.582557 
3646.000000	93.561276 
3645.000000	93.570402 
3644.000000	93.584858 
3643.000000	93.592656 
3642.000000	93.589869 
3641.000000	93.575151 
3640.000000	93.550275 
3639.000000	93.525344 
3638.000000	93.510856 
3637.000000	93.504516 
3636.000000	93.497013 
3635.000000	93.489415 
3634.000000	93.494728 
3633.000000	93.512999 
3632.000000	93.523756 
3631.000000	93.509510 
3630.000000	93.486969 
3629.000000	93.480441 
3628.000000	93.474966 
3627.000000	93.454487 
3626.000000	93.420667 
3625.000000	93.389083 
3624.000000	93.371928 
3623.000000	93.363192 
3622.000000	93.344028 
3621.000000	93.306491 
3620.000000	93.262056 
3619.000000	93.226732 
3618.000000	93.203168 
3617.000000	93.184776 
3616.000000	93.165551 
3615.000000	93.146191 
3614.000000	93.133408 
3613.000000	93.127393 
3612.000000	93.118571 
3611.000000	93.095925 
3610.000000	93.053408 
3609.000000	92.993575 
3608.000000	92.923277 
3607.000000	92.852543 
3606.000000	92.792950 
3605.000000	92.748166 
3604.000000	92.712617 
3603.000000	92.678880 
3602.000000	92.642794 
3601.000000	92.602991 
3600.000000	92.559159 
3599.000000	92.510705 
3598.000000	92.458691 
3597.000000	92.404965 
3596.000000	92.353978 
3595.000000	92.308917 
3594.000000	92.273012 
3593.000000	92.247384 
3592.000000	92.228057 
3591.000000	92.204357 
3590.000000	92.168411 
3589.000000	92.122261 
3588.000000	92.072182 
3587.000000	92.016577 
3586.000000	91.960987 
3585.000000	91.919065 
3584.000000	91.890813 
3583.000000	91.869783 
3582.000000	91.851361 
3581.000000	91.830006 
3580.000000	91.802434 
3579.000000	91.769129 
3578.000000	91.734433 
3577.000000	91.702929 
3576.000000	91.677288 
3575.000000	91.657599 
3574.000000	91.642223 
3573.000000	91.629441 
3572.000000	91.616257 
3571.000000	91.597653 
3570.000000	91.570171 
3569.000000	91.541897 
3568.000000	91.525440 
3567.000000	91.511866 
3566.000000	91.483415 
3565.000000	91.451649 
3564.000000	91.434751 
3563.000000	91.432686 
3562.000000	91.436913 
3561.000000	91.440178 
3560.000000	91.438318 
3559.000000	91.432920 
3558.000000	91.427749 
3557.000000	91.424861 
3556.000000	91.423328 
3555.000000	91.421154 
3554.000000	91.416949 
3553.000000	91.412269 
3552.000000	91.410891 
3551.000000	91.415628 
3550.000000	91.425835 
3549.000000	91.439325 
3548.000000	91.455309 
3547.000000	91.471534 
3546.000000	91.479224 
3545.000000	91.471804 
3544.000000	91.456798 
3543.000000	91.446907 
3542.000000	91.447299 
3541.000000	91.455894 
3540.000000	91.467446 
3539.000000	91.478335 
3538.000000	91.487095 
3537.000000	91.492967 
3536.000000	91.496118 
3535.000000	91.498013 
3534.000000	91.502396 
3533.000000	91.512607 
3532.000000	91.529323 
3531.000000	91.549100 
3530.000000	91.567894 
3529.000000	91.584120 
3528.000000	91.599247 
3527.000000	91.613570 
3526.000000	91.624834 
3525.000000	91.630618 
3524.000000	91.630524 
3523.000000	91.625967 
3522.000000	91.619713 
3521.000000	91.615696 
3520.000000	91.616477 
3519.000000	91.622021 
3518.000000	91.630634 
3517.000000	91.639435 
3516.000000	91.646633 
3515.000000	91.652325 
3514.000000	91.657791 
3513.000000	91.663736 
3512.000000	91.670644 
3511.000000	91.678733 
3510.000000	91.687503 
3509.000000	91.694743 
3508.000000	91.698977 
3507.000000	91.701015 
3506.000000	91.703504 
3505.000000	91.710618 
3504.000000	91.723691 
3503.000000	91.736234 
3502.000000	91.740832 
3501.000000	91.737905 
3500.000000	91.732752 
3499.000000	91.729210 
3498.000000	91.727964 
3497.000000	91.727761 
3496.000000	91.727227 
3495.000000	91.725816 
3494.000000	91.724325 
3493.000000	91.724007 
3492.000000	91.724986 
3491.000000	91.726399 
3490.000000	91.727787 
3489.000000	91.729170 
3488.000000	91.730116 
3487.000000	91.729224 
3486.000000	91.725250 
3485.000000	91.719264 
3484.000000	91.715014 
3483.000000	91.715668 
3482.000000	91.720207 
3481.000000	91.722941 
3480.000000	91.718654 
3479.000000	91.707281 
3478.000000	91.692833 
3477.000000	91.679425 
3476.000000	91.668605 
3475.000000	91.659153 
3474.000000	91.649330 
3473.000000	91.639435 
3472.000000	91.631098 
3471.000000	91.624979 
3470.000000	91.619811 
3469.000000	91.613342 
3468.000000	91.604256 
3467.000000	91.593080 
3466.000000	91.580405 
3465.000000	91.565649 
3464.000000	91.548350 
3463.000000	91.529880 
3462.000000	91.512791 
3461.000000	91.497899 
3460.000000	91.483239 
3459.000000	91.466286 
3458.000000	91.446390 
3457.000000	91.425040 
3456.000000	91.404433 
3455.000000	91.385616 
3454.000000	91.368905 
3453.000000	91.354325 
3452.000000	91.341954 
3451.000000	91.330125 
3450.000000	91.316128 
3449.000000	91.299677 
3448.000000	91.284035 
3447.000000	91.272078 
3446.000000	91.262854 
3445.000000	91.252960 
3444.000000	91.240133 
3443.000000	91.225166 
3442.000000	91.210176 
3441.000000	91.196795 
3440.000000	91.185811 
3439.000000	91.176863 
3438.000000	91.168533 
3437.000000	91.159500 
3436.000000	91.149566 
3435.000000	91.138833 
3434.000000	91.127282 
3433.000000	91.115066 
3432.000000	91.103369 
3431.000000	91.092518 
3430.000000	91.081273 
3429.000000	91.069045 
3428.000000	91.057472 
3427.000000	91.048663 
3426.000000	91.042761 
3425.000000	91.038681 
3424.000000	91.035787 
3423.000000	91.033743 
3422.000000	91.031468 
3421.000000	91.027629 
3420.000000	91.021880 
3419.000000	91.014581 
3418.000000	91.006540 
3417.000000	90.999544 
3416.000000	90.995936 
3415.000000	90.996347 
3414.000000	90.998643 
3413.000000	91.000236 
3412.000000	91.000538 
3411.000000	91.000405 
3410.000000	91.000249 
3409.000000	90.999894 
3408.000000	90.999342 
3407.000000	90.999015 
3406.000000	90.999665 
3405.000000	91.002500 
3404.000000	91.008132 
3403.000000	91.015028 
3402.000000	91.020646 
3401.000000	91.024291 
3400.000000	91.028267 
3399.000000	91.035187 
3398.000000	91.045073 
3397.000000	91.055262 
3396.000000	91.063153 
3395.000000	91.068522 
3394.000000	91.073029 
3393.000000	91.078249 
3392.000000	91.084558 
3391.000000	91.091645 
3390.000000	91.099306 
3389.000000	91.107462 
3388.000000	91.115514 
3387.000000	91.122689 
3386.000000	91.129260 
3385.000000	91.136571 
3384.000000	91.145459 
3383.000000	91.155062 
3382.000000	91.164054 
3381.000000	91.171979 
3380.000000	91.179317 
3379.000000	91.186495 
3378.000000	91.193819 
3377.000000	91.201783 
3376.000000	91.210716 
3375.000000	91.220348 
3374.000000	91.230054 
3373.000000	91.239615 
3372.000000	91.249253 
3371.000000	91.259114 
3370.000000	91.268859 
3369.000000	91.278178 
3368.000000	91.287271 
3367.000000	91.296612 
3366.000000	91.306208 
3365.000000	91.315548 
3364.000000	91.324371 
3363.000000	91.333232 
3362.000000	91.343023 
3361.000000	91.354120 
3360.000000	91.366127 
3359.000000	91.378285 
3358.000000	91.390015 
3357.000000	91.401084 
3356.000000	91.411453 
3355.000000	91.421148 
3354.000000	91.430395 
3353.000000	91.439844 
3352.000000	91.450217 
3351.000000	91.461575 
3350.000000	91.473067 
3349.000000	91.483920 
3348.000000	91.494335 
3347.000000	91.505114 
3346.000000	91.516529 
3345.000000	91.528078 
3344.000000	91.539685 
3343.000000	91.552044 
3342.000000	91.565564 
3341.000000	91.579371 
3340.000000	91.592266 
3339.000000	91.604288 
3338.000000	91.616411 
3337.000000	91.628914 
3336.000000	91.641018 
3335.000000	91.652088 
3334.000000	91.662242 
3333.000000	91.671777 
3332.000000	91.681122 
3331.000000	91.691447 
3330.000000	91.704179 
3329.000000	91.719259 
3328.000000	91.734484 
3327.000000	91.747285 
3326.000000	91.756973 
3325.000000	91.764737 
3324.000000	91.772364 
3323.000000	91.781482 
3322.000000	91.793501 
3321.000000	91.808806 
3320.000000	91.826084 
3319.000000	91.843156 
3318.000000	91.858576 
3317.000000	91.871983 
3316.000000	91.883707 
3315.000000	91.894717 
3314.000000	91.906564 
3313.000000	91.920148 
3312.000000	91.934641 
3311.000000	91.948487 
3310.000000	91.961318 
3309.000000	91.973789 
3308.000000	91.985706 
3307.000000	91.995742 
3306.000000	92.003410 
3305.000000	92.010258 
3304.000000	92.018481 
3303.000000	92.029105 
3302.000000	92.041953 
3301.000000	92.056400 
3300.000000	92.071487 
3299.000000	92.085852 
3298.000000	92.098839 
3297.000000	92.111178 
3296.000000	92.124094 
3295.000000	92.137719 
3294.000000	92.151145 
3293.000000	92.163799 
3292.000000	92.176025 
3291.000000	92.188282 
3290.000000	92.200373 
3289.000000	92.211712 
3288.000000	92.222064 
3287.000000	92.231792 
3286.000000	92.241608 
3285.000000	92.252111 
3284.000000	92.263360 
3283.000000	92.274930 
3282.000000	92.286232 
3281.000000	92.296963 
3280.000000	92.307344 
3279.000000	92.318320 
3278.000000	92.331061 
3277.000000	92.345548 
3276.000000	92.359948 
3275.000000	92.371993 
3274.000000	92.381193 
3273.000000	92.389211 
3272.000000	92.398030 
3271.000000	92.408317 
3270.000000	92.419770 
3269.000000	92.432150 
3268.000000	92.445393 
3267.000000	92.459013 
3266.000000	92.471996 
3265.000000	92.483259 
3264.000000	92.492397 
3263.000000	92.500443 
3262.000000	92.509320 
3261.000000	92.520187 
3260.000000	92.532219 
3259.000000	92.543862 
3258.000000	92.554648 
3257.000000	92.565291 
3256.000000	92.576356 
3255.000000	92.587644 
3254.000000	92.598848 
3253.000000	92.609885 
3252.000000	92.620781 
3251.000000	92.631590 
3250.000000	92.642884 
3249.000000	92.655426 
3248.000000	92.669158 
3247.000000	92.682831 
3246.000000	92.694688 
3245.000000	92.703581 
3244.000000	92.710049 
3243.000000	92.716510 
3242.000000	92.725520 
3241.000000	92.737452 
3240.000000	92.750412 
3239.000000	92.762688 
3238.000000	92.774092 
3237.000000	92.784758 
3236.000000	92.794123 
3235.000000	92.802361 
3234.000000	92.811499 
3233.000000	92.823255 
3232.000000	92.836600 
3231.000000	92.848702 
3230.000000	92.858076 
3229.000000	92.865291 
3228.000000	92.871135 
3227.000000	92.876065 
3226.000000	92.881414 
3225.000000	92.889174 
3224.000000	92.900012 
3223.000000	92.912551 
3222.000000	92.924912 
3221.000000	92.936004 
3220.000000	92.945289 
3219.000000	92.952873 
3218.000000	92.959843 
3217.000000	92.967627 
3216.000000	92.976536 
3215.000000	92.985798 
3214.000000	92.994937 
3213.000000	93.004447 
3212.000000	93.014790 
3211.000000	93.025174 
3210.000000	93.034018 
3209.000000	93.040663 
3208.000000	93.046097 
3207.000000	93.051834 
3206.000000	93.058247 
3205.000000	93.064612 
3204.000000	93.070689 
3203.000000	93.077831 
3202.000000	93.087520 
3201.000000	93.099193 
3200.000000	93.110257 
3199.000000	93.118881 
3198.000000	93.125710 
3197.000000	93.132756 
3196.000000	93.141176 
3195.000000	93.150732 
3194.000000	93.160636 
3193.000000	93.170110 
3192.000000	93.178453 
3191.000000	93.185185 
3190.000000	93.190531 
3189.000000	93.195578 
3188.000000	93.202011 
3187.000000	93.211234 
3186.000000	93.222655 
3185.000000	93.233433 
3184.000000	93.240849 
3183.000000	93.245445 
3182.000000	93.250480 
3181.000000	93.258609 
3180.000000	93.269938 
3179.000000	93.282989 
3178.000000	93.296046 
3177.000000	93.307343 
3176.000000	93.315394 
3175.000000	93.320267 
3174.000000	93.324013 
3173.000000	93.329013 
3172.000000	93.336212 
3171.000000	93.345070 
3170.000000	93.354585 
3169.000000	93.363807 
3168.000000	93.372140 
3167.000000	93.379717 
3166.000000	93.386935 
3165.000000	93.393867 
3164.000000	93.400667 
3163.000000	93.408447 
3162.000000	93.418339 
3161.000000	93.429682 
3160.000000	93.440164 
3159.000000	93.448143 
3158.000000	93.454074 
3157.000000	93.459468 
3156.000000	93.465345 
3155.000000	93.472060 
3154.000000	93.479756 
3153.000000	93.488403 
3152.000000	93.497773 
3151.000000	93.507552 
3150.000000	93.517148 
3149.000000	93.525545 
3148.000000	93.532168 
3147.000000	93.537979 
3146.000000	93.544888 
3145.000000	93.553826 
3144.000000	93.564013 
3143.000000	93.574082 
3142.000000	93.582985 
3141.000000	93.589656 
3140.000000	93.593541 
3139.000000	93.596060 
3138.000000	93.600298 
3137.000000	93.607817 
3136.000000	93.616974 
3135.000000	93.625201 
3134.000000	93.631812 
3133.000000	93.637580 
3132.000000	93.643242 
3131.000000	93.649462 
3130.000000	93.657133 
3129.000000	93.666299 
3128.000000	93.675544 
3127.000000	93.683234 
3126.000000	93.689252 
3125.000000	93.694857 
3124.000000	93.701040 
3123.000000	93.707755 
3122.000000	93.714572 
3121.000000	93.721589 
3120.000000	93.729239 
3119.000000	93.737425 
3118.000000	93.745127 
3117.000000	93.750539 
3116.000000	93.752154 
3115.000000	93.750292 
3114.000000	93.747498 
3113.000000	93.747107 
3112.000000	93.751121 
3111.000000	93.758745 
3110.000000	93.767139 
3109.000000	93.773859 
3108.000000	93.778880 
3107.000000	93.783618 
3106.000000	93.788623 
3105.000000	93.793424 
3104.000000	93.798094 
3103.000000	93.803592 
3102.000000	93.810048 
3101.000000	93.816053 
3100.000000	93.819881 
3099.000000	93.821427 
3098.000000	93.822396 
3097.000000	93.824679 
3096.000000	93.828605 
3095.000000	93.832610 
3094.000000	93.834799 
3093.000000	93.834908 
3092.000000	93.834335 
3091.000000	93.834077 
3090.000000	93.833382 
3089.000000	93.830946 
3088.000000	93.827364 
3087.000000	93.825171 
3086.000000	93.826339 
3085.000000	93.830634 
3084.000000	93.836578 
3083.000000	93.843250 
3082.000000	93.850414 
3081.000000	93.857718 
3080.000000	93.864514 
3079.000000	93.870352 
3078.000000	93.874843 
3077.000000	93.877442 
3076.000000	93.878130 
3075.000000	93.877872 
3074.000000	93.877743 
3073.000000	93.877479 
3072.000000	93.875811 
3071.000000	93.872097 
3070.000000	93.867211 
3069.000000	93.862732 
3068.000000	93.859380 
3067.000000	93.856837 
3066.000000	93.854712 
3065.000000	93.853250 
3064.000000	93.852691 
3063.000000	93.852467 
3062.000000	93.851803 
3061.000000	93.851235 
3060.000000	93.852676 
3059.000000	93.857754 
3058.000000	93.866314 
3057.000000	93.876770 
3056.000000	93.887896 
3055.000000	93.899182 
3054.000000	93.909937 
3053.000000	93.918796 
3052.000000	93.925125 
3051.000000	93.930280 
3050.000000	93.936150 
3049.000000	93.942468 
3048.000000	93.946420 
3047.000000	93.945704 
3046.000000	93.941076 
3045.000000	93.935275 
3044.000000	93.930087 
3043.000000	93.925156 
3042.000000	93.918852 
3041.000000	93.909494 
3040.000000	93.896093 
3039.000000	93.879216 
3038.000000	93.860927 
3037.000000	93.843132 
3036.000000	93.826303 
3035.000000	93.810167 
3034.000000	93.795259 
3033.000000	93.782312 
3032.000000	93.770657 
3031.000000	93.758832 
3030.000000	93.747082 
3029.000000	93.738662 
3028.000000	93.737678 
3027.000000	93.746454 
3026.000000	93.764247 
3025.000000	93.788174 
3024.000000	93.815253 
3023.000000	93.843662 
3022.000000	93.872443 
3021.000000	93.900336 
3020.000000	93.925400 
3019.000000	93.946280 
3018.000000	93.963422 
3017.000000	93.978570 
3016.000000	93.992567 
3015.000000	94.004221 
3014.000000	94.011431 
3013.000000	94.013101 
3012.000000	94.009869 
3011.000000	94.003435 
3010.000000	93.995432 
3009.000000	93.986719 
3008.000000	93.977402 
3007.000000	93.967653 
3006.000000	93.958239 
3005.000000	93.950010 
3004.000000	93.942656 
3003.000000	93.934547 
3002.000000	93.924142 
3001.000000	93.911588 
3000.000000	93.898533 
2999.000000	93.886598 
2998.000000	93.875999 
2997.000000	93.865459 
2996.000000	93.853130 
2995.000000	93.837879 
2994.000000	93.819752 
2993.000000	93.799450 
2992.000000	93.777482 
2991.000000	93.753875 
2990.000000	93.728470 
2989.000000	93.701020 
2988.000000	93.671336 
2987.000000	93.639750 
2986.000000	93.607190 
2985.000000	93.574370 
2984.000000	93.541024 
2983.000000	93.506546 
2982.000000	93.471027 
2981.000000	93.435115 
2980.000000	93.398807 
2979.000000	93.360933 
2978.000000	93.320002 
2977.000000	93.275364 
2976.000000	93.227580 
2975.000000	93.177976 
2974.000000	93.127576 
2973.000000	93.076047 
2972.000000	93.021836 
2971.000000	92.964147 
2970.000000	92.904625 
2969.000000	92.846340 
2968.000000	92.790975 
2967.000000	92.737852 
2966.000000	92.685852 
2965.000000	92.635142 
2964.000000	92.586593 
2963.000000	92.540301 
2962.000000	92.495736 
2961.000000	92.452886 
2960.000000	92.412521 
2959.000000	92.375389 
2958.000000	92.341880 
2957.000000	92.312495 
2956.000000	92.288010 
2955.000000	92.268848 
2954.000000	92.254444 
2953.000000	92.243460 
2952.000000	92.234453 
2951.000000	92.226223 
2950.000000	92.217692 
2949.000000	92.207959 
2948.000000	92.196691 
2947.000000	92.184363 
2946.000000	92.171866 
2945.000000	92.159724 
2944.000000	92.147466 
2943.000000	92.133664 
2942.000000	92.116576 
2941.000000	92.095098 
2940.000000	92.069235 
2939.000000	92.039669 
2938.000000	92.006936 
2937.000000	91.971417 
2936.000000	91.934072 
2935.000000	91.896505 
2934.000000	91.859865 
2933.000000	91.824082 
2932.000000	91.788611 
2931.000000	91.753550 
2930.000000	91.719758 
2929.000000	91.688328 
2928.000000	91.660704 
2927.000000	91.638868 
2926.000000	91.624510 
2925.000000	91.618149 
2924.000000	91.619864 
2923.000000	91.630786 
2922.000000	91.652723 
2921.000000	91.686131 
2920.000000	91.729241 
2919.000000	91.779399 
2918.000000	91.834322 
2917.000000	91.891912 
2916.000000	91.949979 
2915.000000	92.006928 
2914.000000	92.062129 
2913.000000	92.115154 
2912.000000	92.164883 
2911.000000	92.209896 
2910.000000	92.249610 
2909.000000	92.284570 
2908.000000	92.316081 
2907.000000	92.345408 
2906.000000	92.373072 
2905.000000	92.398691 
2904.000000	92.422059 
2903.000000	92.444141 
2902.000000	92.466682 
2901.000000	92.488675 
2900.000000	92.509151 
2899.000000	92.527345 
2898.000000	92.544177 
2897.000000	92.560749 
2896.000000	92.576686 
2895.000000	92.590666 
2894.000000	92.602139 
2893.000000	92.612007 
2892.000000	92.621659 
2891.000000	92.631681 
2890.000000	92.641167 
2889.000000	92.648244 
2888.000000	92.651674 
2887.000000	92.652175 
2886.000000	92.651848 
2885.000000	92.652172 
2884.000000	92.652888 
2883.000000	92.652702 
2882.000000	92.650591 
2881.000000	92.646353 
2880.000000	92.640681 
2879.000000	92.634970 
2878.000000	92.630634 
2877.000000	92.628299 
2876.000000	92.628015 
2875.000000	92.629936 
2874.000000	92.633995 
2873.000000	92.639036 
2872.000000	92.643582 
2871.000000	92.647923 
2870.000000	92.654536 
2869.000000	92.665505 
2868.000000	92.680133 
2867.000000	92.695577 
2866.000000	92.709139 
2865.000000	92.719751 
2864.000000	92.727886 
2863.000000	92.734912 
2862.000000	92.741815 
2861.000000	92.747849 
2860.000000	92.750860 
2859.000000	92.749695 
2858.000000	92.746279 
2857.000000	92.744754 
2856.000000	92.749329 
2855.000000	92.763000 
2854.000000	92.787734 
2853.000000	92.824665 
2852.000000	92.874066 
2851.000000	92.935406 
2850.000000	93.007287 
2849.000000	93.087067 
2848.000000	93.171285 
2847.000000	93.256821 
2846.000000	93.341543 
2845.000000	93.423646 
2844.000000	93.501399 
2843.000000	93.574033 
2842.000000	93.642251 
2841.000000	93.706797 
2840.000000	93.766881 
2839.000000	93.820647 
2838.000000	93.867012 
2837.000000	93.906611 
2836.000000	93.941008 
2835.000000	93.971624 
2834.000000	93.999590 
2833.000000	94.026047 
2832.000000	94.052083 
2831.000000	94.078092 
2830.000000	94.103367 
2829.000000	94.126642 
2828.000000	94.147448 
2827.000000	94.166756 
2826.000000	94.186056 
2825.000000	94.206096 
2824.000000	94.226788 
2823.000000	94.247984 
2822.000000	94.269522 
2821.000000	94.290666 
2820.000000	94.310429 
2819.000000	94.328694 
2818.000000	94.346307 
2817.000000	94.363738 
2816.000000	94.380413 
2815.000000	94.395802 
2814.000000	94.410547 
2813.000000	94.425885 
2812.000000	94.442285 
2811.000000	94.459020 
2810.000000	94.474808 
2809.000000	94.488567 
2808.000000	94.499780 
2807.000000	94.508801 
2806.000000	94.516780 
2805.000000	94.525009 
2804.000000	94.534171 
2803.000000	94.544217 
2802.000000	94.554872 
2801.000000	94.566155 
2800.000000	94.578318 
2799.000000	94.591142 
2798.000000	94.603369 
2797.000000	94.613359 
2796.000000	94.620697 
2795.000000	94.626936 
2794.000000	94.634220 
2793.000000	94.643284 
2792.000000	94.653230 
2791.000000	94.662845 
2790.000000	94.671551 
2789.000000	94.679323 
2788.000000	94.686596 
2787.000000	94.694306 
2786.000000	94.703137 
2785.000000	94.712443 
2784.000000	94.720652 
2783.000000	94.727168 
2782.000000	94.733187 
2781.000000	94.740260 
2780.000000	94.748692 
2779.000000	94.757739 
2778.000000	94.766768 
2777.000000	94.775509 
2776.000000	94.783509 
2775.000000	94.790171 
2774.000000	94.795421 
2773.000000	94.799845 
2772.000000	94.804081 
2771.000000	94.808356 
2770.000000	94.812659 
2769.000000	94.817054 
2768.000000	94.821668 
2767.000000	94.826599 
2766.000000	94.831956 
2765.000000	94.837871 
2764.000000	94.844284 
2763.000000	94.850742 
2762.000000	94.856608 
2761.000000	94.861605 
2760.000000	94.866048 
2759.000000	94.870359 
2758.000000	94.874393 
2757.000000	94.877575 
2756.000000	94.879867 
2755.000000	94.882375 
2754.000000	94.886681 
2753.000000	94.893382 
2752.000000	94.901337 
2751.000000	94.908481 
2750.000000	94.913518 
2749.000000	94.916929 
2748.000000	94.920218 
2747.000000	94.924100 
2746.000000	94.927904 
2745.000000	94.930960 
2744.000000	94.934028 
2743.000000	94.938535 
2742.000000	94.944568 
2741.000000	94.950486 
2740.000000	94.954588 
2739.000000	94.956537 
2738.000000	94.957144 
2737.000000	94.957666 
2736.000000	94.959529 
2735.000000	94.963752 
2734.000000	94.969994 
2733.000000	94.976670 
2732.000000	94.982433 
2731.000000	94.987139 
2730.000000	94.991338 
2729.000000	94.995660 
2728.000000	95.000872 
2727.000000	95.007557 
2726.000000	95.015206 
2725.000000	95.022434 
2724.000000	95.028593 
2723.000000	95.034316 
2722.000000	95.039989 
2721.000000	95.044800 
2720.000000	95.048213 
2719.000000	95.051300 
2718.000000	95.055390 
2717.000000	95.060169 
2716.000000	95.064345 
2715.000000	95.067681 
2714.000000	95.071064 
2713.000000	95.074973 
2712.000000	95.079157 
2711.000000	95.083672 
2710.000000	95.088998 
2709.000000	95.095043 
2708.000000	95.100989 
2707.000000	95.106231 
2706.000000	95.110753 
2705.000000	95.114693 
2704.000000	95.118357 
2703.000000	95.122538 
2702.000000	95.127892 
2701.000000	95.134000 
2700.000000	95.139760 
2699.000000	95.144729 
2698.000000	95.149369 
2697.000000	95.154072 
2696.000000	95.158706 
2695.000000	95.163152 
2694.000000	95.167540 
2693.000000	95.171819 
2692.000000	95.175635 
2691.000000	95.178818 
2690.000000	95.181681 
2689.000000	95.184908 
2688.000000	95.189357 
2687.000000	95.195620 
2686.000000	95.203281 
2685.000000	95.210929 
2684.000000	95.217356 
2683.000000	95.222478 
2682.000000	95.226764 
2681.000000	95.230374 
2680.000000	95.233429 
2679.000000	95.236362 
2678.000000	95.239188 
2677.000000	95.241027 
2676.000000	95.241390 
2675.000000	95.241544 
2674.000000	95.243510 
2673.000000	95.247902 
2672.000000	95.253582 
2671.000000	95.259080 
2670.000000	95.263375 
2669.000000	95.265631 
2668.000000	95.265467 
2667.000000	95.263518 
2666.000000	95.260685 
2665.000000	95.256805 
2664.000000	95.251060 
2663.000000	95.243742 
2662.000000	95.236492 
2661.000000	95.230460 
2660.000000	95.225195 
2659.000000	95.219787 
2658.000000	95.214393 
2657.000000	95.210060 
2656.000000	95.207451 
2655.000000	95.206176 
2654.000000	95.205176 
2653.000000	95.203644 
2652.000000	95.201789 
2651.000000	95.200723 
2650.000000	95.201284 
2649.000000	95.202971 
2648.000000	95.204312 
2647.000000	95.204194 
2646.000000	95.202698 
2645.000000	95.200956 
2644.000000	95.200546 
2643.000000	95.202628 
2642.000000	95.206989 
2641.000000	95.212055 
2640.000000	95.216194 
2639.000000	95.218801 
2638.000000	95.219998 
2637.000000	95.220058 
2636.000000	95.219789 
2635.000000	95.220692 
2634.000000	95.223699 
2633.000000	95.228025 
2632.000000	95.231976 
2631.000000	95.234564 
2630.000000	95.235717 
2629.000000	95.235690 
2628.000000	95.235330 
2627.000000	95.236270 
2626.000000	95.239589 
2625.000000	95.244500 
2624.000000	95.249430 
2623.000000	95.253930 
2622.000000	95.258330 
2621.000000	95.262009 
2620.000000	95.263669 
2619.000000	95.263332 
2618.000000	95.262564 
2617.000000	95.262416 
2616.000000	95.262474 
2615.000000	95.262322 
2614.000000	95.262705 
2613.000000	95.264478 
2612.000000	95.267276 
2611.000000	95.269952 
2610.000000	95.271964 
2609.000000	95.273788 
2608.000000	95.276169 
2607.000000	95.279324 
2606.000000	95.282897 
2605.000000	95.286553 
2604.000000	95.290341 
2603.000000	95.294077 
2602.000000	95.296661 
2601.000000	95.297001 
2600.000000	95.295867 
2599.000000	95.295816 
2598.000000	95.298667 
2597.000000	95.303810 
2596.000000	95.309537 
2595.000000	95.315057 
2594.000000	95.320354 
2593.000000	95.325045 
2592.000000	95.328543 
2591.000000	95.330950 
2590.000000	95.332964 
2589.000000	95.335305 
2588.000000	95.338623 
2587.000000	95.343141 
2586.000000	95.347954 
2585.000000	95.351711 
2584.000000	95.354590 
2583.000000	95.358386 
2582.000000	95.363899 
2581.000000	95.369644 
2580.000000	95.374048 
2579.000000	95.377427 
2578.000000	95.380579 
2577.000000	95.382892 
2576.000000	95.383474 
2575.000000	95.383105 
2574.000000	95.383543 
2573.000000	95.385740 
2572.000000	95.389836 
2571.000000	95.395705 
2570.000000	95.402224 
2569.000000	95.407268 
2568.000000	95.409921 
2567.000000	95.411589 
2566.000000	95.413638 
2565.000000	95.415560 
2564.000000	95.416946 
2563.000000	95.419386 
2562.000000	95.424244 
2561.000000	95.430041 
2560.000000	95.434417 
2559.000000	95.437460 
2558.000000	95.440760 
2557.000000	95.444395 
2556.000000	95.447468 
2555.000000	95.450607 
2554.000000	95.455135 
2553.000000	95.460419 
2552.000000	95.464726 
2551.000000	95.468104 
2550.000000	95.471711 
2549.000000	95.474824 
2548.000000	95.475633 
2547.000000	95.474932 
2546.000000	95.475797 
2545.000000	95.479011 
2544.000000	95.481712 
2543.000000	95.481779 
2542.000000	95.481191 
2541.000000	95.483376 
2540.000000	95.488676 
2539.000000	95.493805 
2538.000000	95.495066 
2537.000000	95.491322 
2536.000000	95.484426 
2535.000000	95.477358 
2534.000000	95.471826 
2533.000000	95.467592 
2532.000000	95.463808 
2531.000000	95.459933 
2530.000000	95.455032 
2529.000000	95.447864 
2528.000000	95.439063 
2527.000000	95.431871 
2526.000000	95.428812 
2525.000000	95.428488 
2524.000000	95.427417 
2523.000000	95.424315 
2522.000000	95.420588 
2521.000000	95.417213 
2520.000000	95.413360 
2519.000000	95.408363 
2518.000000	95.403326 
2517.000000	95.400314 
2516.000000	95.400842 
2515.000000	95.405023 
2514.000000	95.411247 
2513.000000	95.417029 
2512.000000	95.421225 
2511.000000	95.425191 
2510.000000	95.431022 
2509.000000	95.439324 
2508.000000	95.449452 
2507.000000	95.460826 
2506.000000	95.472876 
2505.000000	95.484814 
2504.000000	95.496833 
2503.000000	95.510443 
2502.000000	95.526192 
2501.000000	95.542140 
2500.000000	95.556147 
2499.000000	95.568579 
2498.000000	95.581146 
2497.000000	95.594315 
2496.000000	95.607641 
2495.000000	95.621300 
2494.000000	95.635100 
2493.000000	95.647140 
2492.000000	95.655974 
2491.000000	95.663302 
2490.000000	95.671975 
2489.000000	95.681819 
2488.000000	95.690004 
2487.000000	95.695464 
2486.000000	95.700558 
2485.000000	95.707981 
2484.000000	95.717932 
2483.000000	95.728753 
2482.000000	95.738939 
2481.000000	95.748064 
2480.000000	95.756569 
2479.000000	95.764716 
2478.000000	95.771511 
2477.000000	95.775651 
2476.000000	95.778163 
2475.000000	95.782493 
2474.000000	95.790466 
2473.000000	95.799523 
2472.000000	95.805636 
2471.000000	95.807809 
2470.000000	95.807965 
2469.000000	95.807794 
2468.000000	95.807945 
2467.000000	95.809292 
2466.000000	95.812525 
2465.000000	95.816794 
2464.000000	95.820684 
2463.000000	95.824178 
2462.000000	95.827983 
2461.000000	95.831572 
2460.000000	95.833805 
2459.000000	95.834962 
2458.000000	95.836228 
2457.000000	95.837489 
2456.000000	95.837528 
2455.000000	95.836361 
2454.000000	95.835825 
2453.000000	95.837842 
2452.000000	95.843038 
2451.000000	95.850610 
2450.000000	95.858573 
2449.000000	95.864867 
2448.000000	95.869323 
2447.000000	95.873737 
2446.000000	95.879172 
2445.000000	95.884478 
2444.000000	95.888527 
2443.000000	95.892258 
2442.000000	95.897089 
2441.000000	95.902970 
2440.000000	95.909539 
2439.000000	95.917259 
2438.000000	95.925435 
2437.000000	95.931136 
2436.000000	95.932759 
2435.000000	95.933235 
2434.000000	95.937007 
2433.000000	95.944892 
2432.000000	95.954257 
2431.000000	95.962922 
2430.000000	95.970164 
2429.000000	95.975119 
2428.000000	95.977432 
2427.000000	95.979108 
2426.000000	95.982817 
2425.000000	95.988415 
2424.000000	95.993401 
2423.000000	95.996529 
2422.000000	95.998784 
2421.000000	96.001264 
2420.000000	96.004419 
2419.000000	96.009087 
2418.000000	96.015941 
2417.000000	96.023937 
2416.000000	96.031132 
2415.000000	96.036808 
2414.000000	96.041229 
2413.000000	96.044106 
2412.000000	96.045271 
2411.000000	96.046230 
2410.000000	96.049069 
2409.000000	96.054327 
2408.000000	96.061635 
2407.000000	96.071431 
2406.000000	96.083803 
2405.000000	96.096485 
2404.000000	96.106512 
2403.000000	96.113259 
2402.000000	96.117676 
2401.000000	96.119569 
2400.000000	96.118428 
2399.000000	96.116236 
2398.000000	96.116326 
2397.000000	96.119312 
2396.000000	96.122861 
2395.000000	96.125708 
2394.000000	96.129138 
2393.000000	96.133841 
2392.000000	96.137954 
2391.000000	96.139513 
2390.000000	96.139001 
2389.000000	96.138231 
2388.000000	96.137819 
2387.000000	96.136590 
2386.000000	96.132838 
2385.000000	96.126084 
2384.000000	96.118726 
2383.000000	96.116242 
2382.000000	96.124589 
2381.000000	96.146379 
2380.000000	96.179240 
2379.000000	96.217197 
2378.000000	96.252972 
2377.000000	96.280231 
2376.000000	96.295876 
2375.000000	96.300527 
2374.000000	96.296173 
2373.000000	96.283623 
2372.000000	96.264352 
2371.000000	96.244122 
2370.000000	96.231080 
2369.000000	96.228379 
2368.000000	96.230652 
2367.000000	96.229570 
2366.000000	96.222903 
2365.000000	96.217392 
2364.000000	96.221836 
2363.000000	96.234550 
2362.000000	96.241389 
2361.000000	96.230521 
2360.000000	96.204581 
2359.000000	96.179870 
2358.000000	96.176098 
2357.000000	96.200115 
2356.000000	96.241433 
2355.000000	96.277365 
2354.000000	96.296601 
2353.000000	96.304181 
2352.000000	96.303589 
2351.000000	96.291402 
2350.000000	96.267046 
2349.000000	96.242881 
2348.000000	96.231229 
2347.000000	96.231268 
2346.000000	96.232427 
2345.000000	96.222775 
2344.000000	96.204973 
2343.000000	96.186682 
2342.000000	96.181658 
2341.000000	96.199435 
2340.000000	96.229564 
2339.000000	96.253404 
2338.000000	96.261873 
2337.000000	96.263310 
2336.000000	96.265403 
2335.000000	96.268859 
2334.000000	96.268596 
2333.000000	96.264888 
2332.000000	96.255897 
2331.000000	96.243931 
2330.000000	96.226402 
2329.000000	96.201754 
2328.000000	96.161831 
2327.000000	96.101029 
2326.000000	96.024434 
2325.000000	95.948564 
2324.000000	95.897360 
2323.000000	95.885594 
2322.000000	95.909438 
2321.000000	95.948928 
2320.000000	95.982537 
2319.000000	96.004237 
2318.000000	96.016840 
2317.000000	96.028758 
2316.000000	96.043368 
2315.000000	96.062605 
2314.000000	96.080075 
2313.000000	96.089028 
2312.000000	96.085020 
2311.000000	96.073487 
2310.000000	96.061198 
2309.000000	96.052762 
2308.000000	96.048455 
2307.000000	96.049257 
2306.000000	96.053783 
2305.000000	96.058088 
2304.000000	96.057416 
2303.000000	96.052694 
2302.000000	96.047859 
2301.000000	96.046949 
2300.000000	96.049303 
2299.000000	96.052769 
2298.000000	96.054120 
2297.000000	96.052598 
2296.000000	96.049439 
2295.000000	96.047146 
2294.000000	96.045870 
2293.000000	96.043644 
2292.000000	96.039330 
2291.000000	96.033545 
2290.000000	96.026982 
2289.000000	96.019591 
2288.000000	96.013171 
2287.000000	96.010577 
2286.000000	96.012222 
2285.000000	96.015192 
2284.000000	96.018272 
2283.000000	96.024049 
2282.000000	96.034858 
2281.000000	96.049478 
2280.000000	96.066070 
2279.000000	96.084697 
2278.000000	96.104277 
2277.000000	96.120914 
2276.000000	96.132023 
2275.000000	96.139563 
2274.000000	96.145782 
2273.000000	96.149861 
2272.000000	96.151383 
2271.000000	96.153518 
2270.000000	96.158621 
2269.000000	96.164569 
2268.000000	96.169520 
2267.000000	96.176918 
2266.000000	96.190661 
2265.000000	96.208033 
2264.000000	96.222258 
2263.000000	96.229852 
2262.000000	96.231654 
2261.000000	96.228740 
2260.000000	96.222341 
2259.000000	96.215477 
2258.000000	96.211099 
2257.000000	96.210130 
2256.000000	96.213993 
2255.000000	96.225977 
2254.000000	96.245912 
2253.000000	96.266848 
2252.000000	96.280916 
2251.000000	96.286325 
2250.000000	96.285147 
2249.000000	96.278395 
2248.000000	96.269094 
2247.000000	96.263366 
2246.000000	96.265672 
2245.000000	96.272557 
2244.000000	96.277232 
2243.000000	96.278065 
2242.000000	96.278323 
2241.000000	96.279818 
2240.000000	96.281659 
2239.000000	96.283223 
2238.000000	96.284094 
2237.000000	96.282975 
2236.000000	96.280251 
2235.000000	96.279092 
2234.000000	96.280644 
2233.000000	96.281579 
2232.000000	96.280368 
2231.000000	96.281972 
2230.000000	96.291266 
2229.000000	96.305201 
2228.000000	96.316988 
2227.000000	96.325174 
2226.000000	96.332804 
2225.000000	96.340372 
2224.000000	96.345134 
2223.000000	96.345753 
2222.000000	96.343072 
2221.000000	96.338231 
2220.000000	96.333941 
2219.000000	96.334941 
2218.000000	96.343372 
2217.000000	96.356122 
2216.000000	96.369397 
2215.000000	96.381807 
2214.000000	96.390009 
2213.000000	96.387989 
2212.000000	96.376214 
2211.000000	96.365781 
2210.000000	96.366561 
2209.000000	96.375385 
2208.000000	96.382008 
2207.000000	96.382559 
2206.000000	96.380211 
2205.000000	96.376899 
2204.000000	96.372458 
2203.000000	96.369350 
2202.000000	96.370722 
2201.000000	96.374856 
2200.000000	96.376932 
2199.000000	96.374839 
2198.000000	96.368927 
2197.000000	96.359268 
2196.000000	96.348061 
2195.000000	96.341108 
2194.000000	96.341483 
2193.000000	96.344876 
2192.000000	96.346227 
2191.000000	96.347101 
2190.000000	96.350680 
2189.000000	96.353507 
2188.000000	96.348966 
2187.000000	96.336631 
2186.000000	96.322473 
2185.000000	96.313289 
2184.000000	96.316297 
2183.000000	96.339083 
2182.000000	96.381818 
2181.000000	96.430464 
2180.000000	96.465505 
2179.000000	96.478554 
2178.000000	96.476975 
2177.000000	96.475782 
2176.000000	96.487189 
2175.000000	96.511044 
2174.000000	96.530688 
2173.000000	96.523784 
2172.000000	96.482940 
2171.000000	96.422933 
2170.000000	96.364755 
2169.000000	96.318638 
2168.000000	96.284143 
2167.000000	96.259680 
2166.000000	96.245181 
2165.000000	96.237812 
2164.000000	96.230679 
2163.000000	96.217972 
2162.000000	96.206636 
2161.000000	96.229808 
2160.000000	96.338669 
2159.000000	96.554763 
2158.000000	96.820743 
2157.000000	97.028922 
2156.000000	97.114517 
2155.000000	97.098839 
2154.000000	97.040827 
2153.000000	96.981581 
2152.000000	96.935069 
2151.000000	96.901822 
2150.000000	96.876592 
2149.000000	96.853010 
2148.000000	96.833144 
2147.000000	96.826416 
2146.000000	96.834128 
2145.000000	96.844500 
2144.000000	96.848093 
2143.000000	96.847722 
2142.000000	96.847335 
2141.000000	96.843025 
2140.000000	96.833054 
2139.000000	96.826516 
2138.000000	96.833359 
2137.000000	96.853568 
2136.000000	96.882825 
2135.000000	96.919712 
2134.000000	96.958692 
2133.000000	96.984919 
2132.000000	96.986392 
2131.000000	96.966100 
2130.000000	96.934982 
2129.000000	96.900308 
2128.000000	96.866444 
2127.000000	96.839362 
2126.000000	96.821552 
2125.000000	96.806938 
2124.000000	96.788021 
2123.000000	96.765194 
2122.000000	96.743328 
2121.000000	96.723355 
2120.000000	96.703365 
2119.000000	96.684418 
2118.000000	96.668454 
2117.000000	96.652969 
2116.000000	96.634205 
2115.000000	96.614408 
2114.000000	96.600212 
2113.000000	96.594661 
2112.000000	96.595061 
2111.000000	96.597728 
2110.000000	96.600689 
2109.000000	96.603099 
2108.000000	96.605663 
2107.000000	96.610454 
2106.000000	96.617068 
2105.000000	96.620968 
2104.000000	96.618821 
2103.000000	96.613319 
2102.000000	96.609454 
2101.000000	96.608690 
2100.000000	96.609644 
2099.000000	96.612569 
2098.000000	96.620330 
2097.000000	96.636778 
2096.000000	96.664748 
2095.000000	96.701336 
2094.000000	96.734017 
2093.000000	96.748209 
2092.000000	96.741354 
2091.000000	96.724248 
2090.000000	96.706449 
2089.000000	96.687604 
2088.000000	96.665462 
2087.000000	96.644222 
2086.000000	96.629312 
2085.000000	96.620388 
2084.000000	96.614567 
2083.000000	96.611808 
2082.000000	96.611793 
2081.000000	96.610402 
2080.000000	96.604777 
2079.000000	96.597965 
2078.000000	96.593782 
2077.000000	96.591603 
2076.000000	96.590343 
2075.000000	96.592048 
2074.000000	96.597111 
2073.000000	96.601591 
2072.000000	96.603750 
2071.000000	96.607860 
2070.000000	96.617005 
2069.000000	96.627597 
2068.000000	96.635617 
2067.000000	96.642242 
2066.000000	96.648728 
2065.000000	96.652547 
2064.000000	96.654246 
2063.000000	96.659207 
2062.000000	96.667366 
2061.000000	96.671200 
2060.000000	96.668067 
2059.000000	96.664773 
2058.000000	96.664904 
2057.000000	96.663721 
2056.000000	96.660685 
2055.000000	96.661654 
2054.000000	96.659167 
2053.000000	96.627707 
2052.000000	96.556384 
2051.000000	96.476834 
2050.000000	96.440402 
2049.000000	96.468695 
2048.000000	96.537315 
2047.000000	96.607698 
2046.000000	96.658357 
2045.000000	96.683717 
2044.000000	96.686730 
2043.000000	96.679524 
2042.000000	96.675426 
2041.000000	96.675587 
2040.000000	96.672761 
2039.000000	96.665894 
2038.000000	96.659766 
2037.000000	96.656260 
2036.000000	96.658081 
2035.000000	96.675361 
2034.000000	96.713498 
2033.000000	96.758637 
2032.000000	96.791395 
2031.000000	96.810390 
2030.000000	96.826951 
2029.000000	96.843767 
2028.000000	96.855120 
2027.000000	96.861926 
2026.000000	96.869513 
2025.000000	96.875495 
2024.000000	96.875389 
2023.000000	96.875044 
2022.000000	96.882064 
2021.000000	96.890393 
2020.000000	96.890100 
2019.000000	96.886948 
2018.000000	96.894654 
2017.000000	96.911556 
2016.000000	96.923591 
2015.000000	96.926798 
2014.000000	96.927926 
2013.000000	96.927898 
2012.000000	96.920168 
2011.000000	96.904364 
2010.000000	96.890322 
2009.000000	96.889448 
2008.000000	96.909367 
2007.000000	96.950651 
2006.000000	96.999687 
2005.000000	97.031974 
2004.000000	97.033269 
2003.000000	97.011861 
2002.000000	96.983581 
2001.000000	96.955565 
2000.000000	96.929972 
1999.000000	96.910703 
1998.000000	96.897989 
1997.000000	96.884823 
1996.000000	96.866492 
1995.000000	96.848029 
1994.000000	96.835665 
1993.000000	96.826214 
1992.000000	96.814153 
1991.000000	96.805326 
1990.000000	96.807658 
1989.000000	96.814990 
1988.000000	96.814277 
1987.000000	96.802184 
1986.000000	96.784873 
1985.000000	96.765574 
1984.000000	96.741681 
1983.000000	96.710448 
1982.000000	96.670132 
1981.000000	96.623288 
1980.000000	96.588380 
1979.000000	96.599424 
1978.000000	96.677329 
1977.000000	96.799130 
1976.000000	96.911729 
1975.000000	96.981055 
1974.000000	97.011822 
1973.000000	97.023695 
1972.000000	97.028765 
1971.000000	97.031188 
1970.000000	97.031509 
1969.000000	97.026736 
1968.000000	97.015638 
1967.000000	97.006082 
1966.000000	97.007244 
1965.000000	97.015417 
1964.000000	97.020305 
1963.000000	97.022666 
1962.000000	97.033058 
1961.000000	97.054258 
1960.000000	97.076998 
1959.000000	97.093692 
1958.000000	97.103655 
1957.000000	97.104525 
1956.000000	97.092294 
1955.000000	97.071985 
1954.000000	97.056580 
1953.000000	97.051518 
1952.000000	97.050198 
1951.000000	97.047252 
1950.000000	97.045031 
1949.000000	97.045815 
1948.000000	97.047536 
1947.000000	97.048137 
1946.000000	97.047190 
1945.000000	97.042754 
1944.000000	97.033096 
1943.000000	97.022451 
1942.000000	97.019680 
1941.000000	97.029570 
1940.000000	97.047076 
1939.000000	97.062601 
1938.000000	97.070544 
1937.000000	97.070392 
1936.000000	97.065466 
1935.000000	97.061831 
1934.000000	97.063297 
1933.000000	97.066177 
1932.000000	97.065081 
1931.000000	97.061581 
1930.000000	97.058252 
1929.000000	97.052423 
1928.000000	97.043730 
1927.000000	97.039549 
1926.000000	97.045506 
1925.000000	97.056344 
1924.000000	97.061406 
1923.000000	97.056013 
1922.000000	97.044226 
1921.000000	97.033827 
1920.000000	97.029983 
1919.000000	97.033293 
1918.000000	97.038603 
1917.000000	97.038128 
1916.000000	97.033640 
1915.000000	97.031845 
1914.000000	97.031662 
1913.000000	97.026156 
1912.000000	97.015311 
1911.000000	97.009318 
1910.000000	97.012595 
1909.000000	97.016459 
1908.000000	97.015440 
1907.000000	97.015098 
1906.000000	97.018199 
1905.000000	97.019610 
1904.000000	97.018413 
1903.000000	97.021344 
1902.000000	97.029249 
1901.000000	97.034698 
1900.000000	97.034666 
1899.000000	97.034217 
1898.000000	97.035849 
1897.000000	97.034726 
1896.000000	97.030377 
1895.000000	97.031006 
1894.000000	97.037863 
1893.000000	97.040176 
1892.000000	97.031698 
1891.000000	97.019636 
1890.000000	97.012891 
1889.000000	97.010157 
1888.000000	97.011515 
1887.000000	97.021544 
1886.000000	97.036820 
1885.000000	97.046298 
1884.000000	97.044970 
1883.000000	97.040599 
1882.000000	97.039443 
1881.000000	97.038964 
1880.000000	97.037580 
1879.000000	97.040287 
1878.000000	97.048814 
1877.000000	97.055124 
1876.000000	97.053458 
1875.000000	97.050370 
1874.000000	97.053571 
1873.000000	97.060438 
1872.000000	97.066204 
1871.000000	97.073444 
1870.000000	97.084601 
1869.000000	97.088449 
1868.000000	97.077262 
1867.000000	97.069150 
1866.000000	97.076472 
1865.000000	97.089410 
1864.000000	97.096892 
1863.000000	97.099334 
1862.000000	97.101305 
1861.000000	97.101618 
1860.000000	97.099067 
1859.000000	97.098635 
1858.000000	97.101704 
1857.000000	97.101979 
1856.000000	97.098497 
1855.000000	97.098733 
1854.000000	97.106236 
1853.000000	97.115199 
1852.000000	97.119733 
1851.000000	97.122018 
1850.000000	97.124946 
1849.000000	97.126370 
1848.000000	97.128064 
1847.000000	97.142701 
1846.000000	97.178137 
1845.000000	97.217737 
1844.000000	97.232493 
1843.000000	97.217149 
1842.000000	97.191180 
1841.000000	97.170522 
1840.000000	97.158083 
1839.000000	97.149803 
1838.000000	97.143562 
1837.000000	97.138482 
1836.000000	97.134524 
1835.000000	97.132042 
1834.000000	97.130250 
1833.000000	97.125626 
1832.000000	97.112443 
1831.000000	97.091528 
1830.000000	97.073651 
1829.000000	97.063203 
1828.000000	97.054624 
1827.000000	97.046951 
1826.000000	97.045270 
1825.000000	97.049803 
1824.000000	97.054227 
1823.000000	97.060446 
1822.000000	97.072185 
1821.000000	97.084207 
1820.000000	97.090723 
1819.000000	97.099846 
1818.000000	97.121175 
1817.000000	97.142279 
1816.000000	97.142740 
1815.000000	97.124109 
1814.000000	97.102053 
1813.000000	97.079649 
1812.000000	97.047517 
1811.000000	97.012795 
1810.000000	96.995411 
1809.000000	96.991389 
1808.000000	96.981467 
1807.000000	96.962253 
1806.000000	96.938246 
1805.000000	96.902579 
1804.000000	96.846743 
1803.000000	96.779688 
1802.000000	96.720161 
1801.000000	96.669469 
1800.000000	96.619549 
1799.000000	96.581404 
1798.000000	96.564408 
1797.000000	96.556521 
1796.000000	96.545242 
1795.000000	96.537896 
1794.000000	96.550746 
1793.000000	96.581277 
1792.000000	96.604659 
1791.000000	96.615180 
1790.000000	96.632346 
1789.000000	96.658804 
1788.000000	96.681280 
1787.000000	96.694333 
1786.000000	96.702339 
1785.000000	96.703489 
1784.000000	96.687947 
1783.000000	96.656075 
1782.000000	96.625315 
1781.000000	96.610414 
1780.000000	96.606430 
1779.000000	96.602641 
1778.000000	96.595663 
1777.000000	96.584195 
1776.000000	96.567176 
1775.000000	96.548962 
1774.000000	96.540325 
1773.000000	96.539211 
1772.000000	96.516705 
1771.000000	96.464069 
1770.000000	96.414060 
1769.000000	96.377006 
1768.000000	96.325703 
1767.000000	96.241990 
1766.000000	96.145334 
1765.000000	96.056067 
1764.000000	95.963136 
1763.000000	95.838804 
1762.000000	95.675742 
1761.000000	95.496021 
1760.000000	95.308865 
1759.000000	95.100105 
1758.000000	94.850387 
1757.000000	94.546072 
1756.000000	94.196484 
1755.000000	93.836090 
1754.000000	93.482254 
1753.000000	93.104418 
1752.000000	92.632958 
1751.000000	92.020251 
1750.000000	91.313966 
1749.000000	90.598090 
1748.000000	89.897461 
1747.000000	89.210708 
1746.000000	88.540020 
1745.000000	87.864135 
1744.000000	87.159192 
1743.000000	86.452154 
1742.000000	85.793780 
1741.000000	85.165693 
1740.000000	84.499773 
1739.000000	83.823575 
1738.000000	83.265566 
1737.000000	82.869175 
1736.000000	82.542295 
1735.000000	82.124097 
1734.000000	81.539895 
1733.000000	80.990145 
1732.000000	80.640975 
1731.000000	80.422841 
1730.000000	80.253045 
1729.000000	80.133307 
1728.000000	80.093344 
1727.000000	80.126682 
1726.000000	80.212590 
1725.000000	80.355444 
1724.000000	80.573129 
1723.000000	80.855736 
1722.000000	81.165103 
1721.000000	81.477813 
1720.000000	81.809482 
1719.000000	82.218132 
1718.000000	82.774714 
1717.000000	83.423120 
1716.000000	84.023901 
1715.000000	84.555527 
1714.000000	85.038541 
1713.000000	85.479908 
1712.000000	85.900845 
1711.000000	86.322810 
1710.000000	86.742850 
1709.000000	87.141738 
1708.000000	87.517001 
1707.000000	87.897443 
1706.000000	88.301837 
1705.000000	88.691638 
1704.000000	89.026011 
1703.000000	89.337200 
1702.000000	89.683355 
1701.000000	90.077318 
1700.000000	90.453146 
1699.000000	90.723624 
1698.000000	90.895464 
1697.000000	91.039452 
1696.000000	91.213038 
1695.000000	91.434082 
1694.000000	91.641586 
1693.000000	91.787109 
1692.000000	91.896499 
1691.000000	92.010325 
1690.000000	92.138720 
1689.000000	92.253122 
1688.000000	92.332228 
1687.000000	92.394462 
1686.000000	92.462151 
1685.000000	92.529429 
1684.000000	92.601563 
1683.000000	92.711199 
1682.000000	92.826513 
1681.000000	92.902865 
1680.000000	92.955388 
1679.000000	93.017284 
1678.000000	93.100540 
1677.000000	93.191192 
1676.000000	93.271382 
1675.000000	93.327671 
1674.000000	93.351683 
1673.000000	93.351403 
1672.000000	93.356058 
1671.000000	93.386727 
1670.000000	93.424738 
1669.000000	93.436196 
1668.000000	93.428792 
1667.000000	93.425893 
1666.000000	93.436142 
1665.000000	93.454083 
1664.000000	93.469443 
1663.000000	93.476010 
1662.000000	93.468520 
1661.000000	93.446818 
1660.000000	93.425030 
1659.000000	93.412597 
1658.000000	93.401531 
1657.000000	93.379923 
1656.000000	93.354320 
1655.000000	93.342507 
1654.000000	93.333273 
1653.000000	93.305246 
1652.000000	93.304180 
1651.000000	93.312267 
1650.000000	93.317614 
1649.000000	93.322872 
1648.000000	93.336027 
1647.000000	93.369631 
1646.000000	93.404285 
1645.000000	93.421965 
1644.000000	93.420894 
1643.000000	93.420081 
1642.000000	93.425877 
1641.000000	93.422828 
1640.000000	93.405773 
1639.000000	93.391213 
1638.000000	93.390999 
1637.000000	93.392524 
1636.000000	93.377000 
1635.000000	93.363751 
1634.000000	93.367685 
1633.000000	93.359724 
1632.000000	93.345157 
1631.000000	93.340318 
1630.000000	93.337529 
1629.000000	93.319242 
1628.000000	93.292614 
1627.000000	93.282624 
1626.000000	93.293983 
1625.000000	93.309585 
1624.000000	93.316907 
1623.000000	93.312944 
1622.000000	93.293717 
1621.000000	93.264961 
1620.000000	93.242140 
1619.000000	93.236229 
1618.000000	93.239117 
1617.000000	93.221838 
1616.000000	93.182735 
1615.000000	93.152090 
1614.000000	93.132923 
1613.000000	93.112603 
1612.000000	93.089116 
1611.000000	93.066440 
1610.000000	93.038378 
1609.000000	92.998181 
1608.000000	92.956917 
1607.000000	92.927887 
1606.000000	92.907285 
1605.000000	92.886430 
1604.000000	92.870868 
1603.000000	92.872550 
1602.000000	92.889908 
1601.000000	92.914115 
1600.000000	92.946956 
1599.000000	92.992252 
1598.000000	93.041229 
1597.000000	93.080463 
1596.000000	93.110494 
1595.000000	93.140455 
1594.000000	93.166523 
1593.000000	93.180331 
1592.000000	93.187897 
1591.000000	93.198329 
1590.000000	93.204486 
1589.000000	93.196408 
1588.000000	93.181522 
1587.000000	93.170820 
1586.000000	93.159606 
1585.000000	93.141555 
1584.000000	93.126591 
1583.000000	93.128137 
1582.000000	93.140196 
1581.000000	93.148293 
1580.000000	93.153694 
1579.000000	93.168279 
1578.000000	93.196352 
1577.000000	93.233418 
1576.000000	93.276747 
1575.000000	93.323303 
1574.000000	93.359562 
1573.000000	93.381821 
1572.000000	93.401812 
1571.000000	93.429958 
1570.000000	93.454668 
1569.000000	93.461079 
1568.000000	93.460490 
1567.000000	93.466618 
1566.000000	93.476666 
1565.000000	93.481099 
1564.000000	93.478633 
1563.000000	93.476814 
1562.000000	93.478954 
1561.000000	93.476497 
1560.000000	93.461164 
1559.000000	93.494637 
1558.000000	93.557546 
1557.000000	93.619168 
1556.000000	93.645314 
1555.000000	93.656901 
1554.000000	93.659774 
1553.000000	93.639427 
1552.000000	93.597526 
1551.000000	93.560570 
1550.000000	93.545384 
1549.000000	93.548945 
1548.000000	93.564913 
1547.000000	93.588130 
1546.000000	93.609007 
1545.000000	93.613781 
1544.000000	93.601568 
1543.000000	93.595661 
1542.000000	93.601854 
1541.000000	93.556216 
1540.000000	93.408285 
1539.000000	93.276038 
1538.000000	93.240916 
1537.000000	93.231300 
1536.000000	93.216534 
1535.000000	93.192399 
1534.000000	93.141631 
1533.000000	93.048757 
1532.000000	92.952633 
1531.000000	92.898246 
1530.000000	92.866984 
1529.000000	92.820538 
1528.000000	92.752013 
1527.000000	92.690876 
1526.000000	92.650109 
1525.000000	92.600293 
1524.000000	92.525290 
1523.000000	92.441228 
1522.000000	92.336421 
1521.000000	92.168663 
1520.000000	91.984519 
1519.000000	91.844145 
1518.000000	91.711394 
1517.000000	91.526053 
1516.000000	91.303009 
1515.000000	91.119923 
1514.000000	90.980093 
1513.000000	90.825536 
1512.000000	90.632613 
1511.000000	90.436032 
1510.000000	90.275271 
1509.000000	90.149534 
1508.000000	90.029233 
1507.000000	89.867973 
1506.000000	89.745435 
1505.000000	89.740510 
1504.000000	89.733254 
1503.000000	89.706573 
1502.000000	89.665992 
1501.000000	89.590799 
1500.000000	89.469403 
1499.000000	89.319726 
1498.000000	89.160584 
1497.000000	88.971426 
1496.000000	88.751904 
1495.000000	88.571263 
1494.000000	88.460613 
1493.000000	88.383203 
1492.000000	88.305004 
1491.000000	88.214439 
1490.000000	88.097550 
1489.000000	87.932454 
1488.000000	87.756517 
1487.000000	87.621722 
1486.000000	87.505510 
1485.000000	87.368981 
1484.000000	87.212958 
1483.000000	87.049328 
1482.000000	86.869687 
1481.000000	86.662964 
1480.000000	86.450486 
1479.000000	86.255937 
1478.000000	86.058395 
1477.000000	85.826263 
1476.000000	85.582898 
1475.000000	85.384736 
1474.000000	85.207517 
1473.000000	84.936162 
1472.000000	84.557491 
1471.000000	84.227429 
1470.000000	83.995671 
1469.000000	83.795907 
1468.000000	83.592606 
1467.000000	83.386641 
1466.000000	83.162192 
1465.000000	82.887318 
1464.000000	82.589908 
1463.000000	82.337007 
1462.000000	82.128498 
1461.000000	81.919824 
1460.000000	81.689716 
1459.000000	81.435851 
1458.000000	81.113471 
1457.000000	80.655943 
1456.000000	80.189652 
1455.000000	79.877088 
1454.000000	79.670199 
1453.000000	79.487736 
1452.000000	79.317827 
1451.000000	79.184542 
1450.000000	79.077165 
1449.000000	78.953459 
1448.000000	78.805382 
1447.000000	78.670806 
1446.000000	78.564907 
1445.000000	78.462145 
1444.000000	78.353026 
1443.000000	78.249309 
1442.000000	78.149282 
1441.000000	78.047685 
1440.000000	77.962233 
1439.000000	77.908149 
1438.000000	77.860264 
1437.000000	77.774123 
1436.000000	77.668843 
1435.000000	77.605924 
1434.000000	77.584034 
1433.000000	77.567397 
1432.000000	77.548697 
1431.000000	77.539626 
1430.000000	77.542527 
1429.000000	77.552274 
1428.000000	77.573729 
1427.000000	77.607610 
1426.000000	77.635815 
1425.000000	77.645992 
1424.000000	77.654831 
1423.000000	77.685187 
1422.000000	77.733107 
1421.000000	77.775224 
1420.000000	77.802394 
1419.000000	77.830789 
1418.000000	77.878432 
1417.000000	77.944822 
1416.000000	78.028668 
1415.000000	78.132965 
1414.000000	78.252605 
1413.000000	78.383077 
1412.000000	78.531470 
1411.000000	78.700047 
1410.000000	78.876824 
1409.000000	79.050835 
1408.000000	79.222398 
1407.000000	79.394212 
1406.000000	79.563845 
1405.000000	79.728586 
1404.000000	79.883360 
1403.000000	80.015309 
1402.000000	80.113020 
1401.000000	80.176296 
1400.000000	80.219663 
1399.000000	80.260487 
1398.000000	80.309585 
1397.000000	80.377980 
1396.000000	80.479365 
1395.000000	80.618722 
1394.000000	80.788858 
1393.000000	80.980893 
1392.000000	81.183152 
1391.000000	81.387283 
1390.000000	81.590134 
1389.000000	81.798835 
1388.000000	82.026086 
1387.000000	82.260951 
1386.000000	82.473912 
1385.000000	82.661543 
1384.000000	82.843641 
1383.000000	83.030337 
1382.000000	83.215816 
1381.000000	83.397417 
1380.000000	83.584603 
1379.000000	83.779372 
1378.000000	83.967758 
1377.000000	84.144054 
1376.000000	84.323295 
1375.000000	84.520094 
1374.000000	84.729642 
1373.000000	84.944325 
1372.000000	85.163261 
1371.000000	85.376466 
1370.000000	85.572028 
1369.000000	85.758109 
1368.000000	85.949919 
1367.000000	86.140840 
1366.000000	86.310209 
1365.000000	86.455441 
1364.000000	86.599923 
1363.000000	86.762903 
1362.000000	86.935177 
1361.000000	87.109458 
1360.000000	87.291697 
1359.000000	87.475272 
1358.000000	87.643856 
1357.000000	87.794720 
1356.000000	87.938631 
1355.000000	88.078809 
1354.000000	88.207004 
1353.000000	88.321563 
1352.000000	88.432997 
1351.000000	88.547758 
1350.000000	88.658543 
1349.000000	88.764826 
1348.000000	88.877367 
1347.000000	88.999619 
1346.000000	89.123152 
1345.000000	89.244529 
1344.000000	89.367180 
1343.000000	89.487591 
1342.000000	89.597746 
1341.000000	89.702528 
1340.000000	89.813004 
1339.000000	89.923565 
1338.000000	90.026253 
1337.000000	90.132915 
1336.000000	90.255140 
1335.000000	90.385058 
1334.000000	90.506390 
1333.000000	90.615850 
1332.000000	90.721822 
1331.000000	90.825007 
1330.000000	90.915835 
1329.000000	90.992329 
1328.000000	91.061511 
1327.000000	91.122683 
1326.000000	91.165819 
1325.000000	91.191240 
1324.000000	91.207472 
1323.000000	91.214458 
1322.000000	91.205222 
1321.000000	91.179987 
1320.000000	91.142742 
1319.000000	91.087961 
1318.000000	91.008100 
1317.000000	90.909087 
1316.000000	90.801264 
1315.000000	90.682048 
1314.000000	90.542650 
1313.000000	90.385127 
1312.000000	90.220536 
1311.000000	90.053382 
1310.000000	89.879549 
1309.000000	89.697580 
1308.000000	89.510975 
1307.000000	89.321201 
1306.000000	89.126361 
1305.000000	88.929866 
1304.000000	88.737890 
1303.000000	88.552200 
1302.000000	88.371939 
1301.000000	88.200920 
1300.000000	88.045517 
1299.000000	87.907019 
1298.000000	87.782293 
1297.000000	87.670519 
1296.000000	87.573906 
1295.000000	87.491644 
1294.000000	87.420488 
1293.000000	87.360101 
1292.000000	87.311562 
1291.000000	87.271950 
1290.000000	87.236392 
1289.000000	87.204503 
1288.000000	87.178739 
1287.000000	87.157573 
1286.000000	87.137282 
1285.000000	87.118876 
1284.000000	87.105881 
1283.000000	87.096822 
1282.000000	87.086227 
1281.000000	87.072471 
1280.000000	87.058559 
1279.000000	87.044562 
1278.000000	87.027109 
1277.000000	87.005640 
1276.000000	86.982937 
1275.000000	86.958301 
1274.000000	86.927097 
1273.000000	86.887224 
1272.000000	86.839848 
1271.000000	86.783828 
1270.000000	86.716364 
1269.000000	86.639165 
1268.000000	86.556737 
1267.000000	86.468657 
1266.000000	86.370748 
1265.000000	86.262743 
1264.000000	86.148668 
1263.000000	86.030112 
1262.000000	85.904939 
1261.000000	85.773266 
1260.000000	85.639725 
1259.000000	85.507648 
1258.000000	85.377370 
1257.000000	85.250567 
1256.000000	85.131925 
1255.000000	85.024681 
1254.000000	84.928284 
1253.000000	84.841920 
1252.000000	84.767075 
1251.000000	84.704596 
1250.000000	84.653458 
1249.000000	84.614141 
1248.000000	84.588580 
1247.000000	84.574721 
1246.000000	84.566787 
1245.000000	84.562071 
1244.000000	84.562615 
1243.000000	84.568947 
1242.000000	84.577777 
1241.000000	84.587608 
1240.000000	84.600764 
1239.000000	84.617577 
1238.000000	84.633941 
1237.000000	84.647097 
1236.000000	84.658425 
1235.000000	84.668075 
1234.000000	84.672233 
1233.000000	84.668142 
1232.000000	84.656342 
1231.000000	84.635917 
1230.000000	84.603133 
1229.000000	84.557054 
1228.000000	84.501828 
1227.000000	84.441650 
1226.000000	84.378067 
1225.000000	84.314123 
1224.000000	84.255829 
1223.000000	84.206162 
1222.000000	84.161723 
1221.000000	84.118499 
1220.000000	84.076533 
1219.000000	84.035230 
1218.000000	83.988648 
1217.000000	83.929473 
1216.000000	83.854258 
1215.000000	83.761543 
1214.000000	83.648563 
1213.000000	83.513472 
1212.000000	83.357803 
1211.000000	83.183880 
1210.000000	82.991647 
1209.000000	82.780570 
1208.000000	82.552444 
1207.000000	82.309305 
1206.000000	82.050517 
1205.000000	81.775538 
1204.000000	81.487898 
1203.000000	81.191582 
1202.000000	80.885093 
1201.000000	80.565012 
1200.000000	80.234310 
1199.000000	79.900015 
1198.000000	79.563603 
1197.000000	79.221545 
1196.000000	78.875512 
1195.000000	78.532568 
1194.000000	78.193805 
1193.000000	77.853614 
1192.000000	77.512731 
1191.000000	77.180898 
1190.000000	76.863763 
1189.000000	76.558988 
1188.000000	76.268930 
1187.000000	76.004189 
1186.000000	75.770414 
1185.000000	75.564668 
1184.000000	75.389126 
1183.000000	75.254501 
1182.000000	75.165729 
1181.000000	75.118139 
1180.000000	75.111280 
1179.000000	75.149802 
1178.000000	75.227048 
1177.000000	75.324965 
1176.000000	75.432643 
1175.000000	75.549138 
1174.000000	75.668323 
1173.000000	75.778496 
1172.000000	75.877510 
1171.000000	75.972259 
1170.000000	76.062831 
1169.000000	76.142702 
1168.000000	76.214974 
1167.000000	76.292540 
1166.000000	76.381373 
1165.000000	76.479204 
1164.000000	76.591093 
1163.000000	76.729325 
1162.000000	76.895839 
1161.000000	77.080598 
1160.000000	77.278325 
1159.000000	77.490690 
1158.000000	77.711642 
1157.000000	77.926591 
1156.000000	78.126898 
1155.000000	78.311414 
1154.000000	78.474121 
1153.000000	78.603781 
1152.000000	78.695021 
1151.000000	78.746795 
1150.000000	78.750654 
1149.000000	78.693548 
1148.000000	78.572957 
1147.000000	78.397920 
1146.000000	78.174984 
1145.000000	77.904622 
1144.000000	77.592674 
1143.000000	77.252813 
1142.000000	76.894114 
1141.000000	76.517583 
1140.000000	76.127969 
1139.000000	75.735771 
1138.000000	75.343837 
1137.000000	74.946203 
1136.000000	74.544645 
1135.000000	74.151329 
1134.000000	73.770766 
1133.000000	73.396174 
1132.000000	73.028903 
1131.000000	72.682987 
1130.000000	72.364694 
1129.000000	72.067093 
1128.000000	71.791107 
1127.000000	71.550618 
1126.000000	71.349200 
1125.000000	71.173729 
1124.000000	71.019019 
1123.000000	70.896713 
1122.000000	70.813131 
1121.000000	70.761528 
1120.000000	70.741941 
1119.000000	70.763535 
1118.000000	70.821126 
1117.000000	70.894694 
1116.000000	70.977945 
1115.000000	71.082371 
1114.000000	71.208657 
1113.000000	71.340092 
1112.000000	71.468978 
1111.000000	71.602788 
1110.000000	71.739013 
1109.000000	71.860937 
1108.000000	71.963087 
1107.000000	72.056416 
1106.000000	72.141854 
1105.000000	72.203166 
1104.000000	72.231664 
1103.000000	72.234160 
1102.000000	72.211208 
1101.000000	72.151146 
1100.000000	72.047850 
1099.000000	71.909189 
1098.000000	71.733940 
1097.000000	71.509950 
1096.000000	71.239060 
1095.000000	70.941109 
1094.000000	70.626127 
1093.000000	70.286268 
1092.000000	69.922563 
1091.000000	69.554024 
1090.000000	69.191861 
1089.000000	68.831340 
1088.000000	68.478188 
1087.000000	68.154559 
1086.000000	67.867832 
1085.000000	67.602144 
1084.000000	67.351452 
1083.000000	67.130063 
1082.000000	66.939981 
1081.000000	66.760999 
1080.000000	66.585463 
1079.000000	66.429785 
1078.000000	66.300096 
1077.000000	66.180199 
1076.000000	66.064689 
1075.000000	65.969434 
1074.000000	65.898271 
1073.000000	65.833605 
1072.000000	65.770435 
1071.000000	65.724871 
1070.000000	65.699848 
1069.000000	65.678073 
1068.000000	65.657572 
1067.000000	65.656967 
1066.000000	65.675945 
1065.000000	65.687336 
1064.000000	65.677970 
1063.000000	65.660772 
1062.000000	65.637608 
1061.000000	65.586642 
1060.000000	65.497697 
1059.000000	65.385045 
1058.000000	65.252345 
1057.000000	65.077597 
1056.000000	64.845056 
1055.000000	64.559879 
1054.000000	64.219903 
1053.000000	63.807085 
1052.000000	63.323114 
1051.000000	62.800311 
1050.000000	62.259158 
1049.000000	61.691062 
1048.000000	61.099791 
1047.000000	60.516223 
1046.000000	59.954413 
1045.000000	59.395772 
1044.000000	58.832034 
1043.000000	58.282041 
1042.000000	57.751747 
1041.000000	57.219069 
1040.000000	56.674948 
1039.000000	56.138133 
1038.000000	55.612458 
1037.000000	55.071618 
1036.000000	54.503759 
1035.000000	53.928601 
1034.000000	53.352948 
1033.000000	52.752825 
1032.000000	52.119216 
1031.000000	51.476800 
1030.000000	50.835675 
1029.000000	50.169658 
1028.000000	49.464385 
1027.000000	48.740449 
1026.000000	48.007057 
1025.000000	47.241041 
1024.000000	46.436153 
1023.000000	45.626864 
1022.000000	44.840995 
1021.000000	44.075949 
1020.000000	43.344334 
1019.000000	42.692126 
1018.000000	42.144480 
1017.000000	41.683340 
1016.000000	41.302135 
1015.000000	41.028926 
1014.000000	40.872871 
1013.000000	40.804558 
1012.000000	40.811771 
1011.000000	40.918095 
1010.000000	41.125677 
1009.000000	41.395468 
1008.000000	41.703392 
1007.000000	42.060387 
1006.000000	42.459380 
1005.000000	42.859256 
1004.000000	43.242250 
1003.000000	43.633077 
1002.000000	44.042356 
1001.000000	44.443267 
1000.000000	44.821022 
999.000000	 45.193184 
998.000000	 45.564314 
997.000000	 45.910783 
996.000000	 46.227572 
995.000000	 46.542960 
994.000000	 46.870777 
993.000000	 47.192774 
992.000000	 47.502664 
991.000000	 47.821399 
990.000000	 48.150876 
989.000000	 48.452745 
988.000000	 48.685910 
987.000000	 48.830360 
986.000000	 48.878859 
985.000000	 48.858399 
984.000000	 48.864582 
983.000000	 49.015056 
982.000000	 49.343596 
981.000000	 49.779446 
980.000000	 50.239525 
979.000000	 50.691738 
978.000000	 51.123912 
977.000000	 51.515397 
976.000000	 51.865495 
975.000000	 52.201945 
974.000000	 52.536516 
973.000000	 52.849465 
972.000000	 53.132277 
971.000000	 53.404502 
970.000000	 53.673434 
969.000000	 53.918012 
968.000000	 54.128507 
967.000000	 54.324174 
966.000000	 54.516735 
965.000000	 54.693445 
964.000000	 54.850665 
963.000000	 55.007049 
962.000000	 55.169089 
961.000000	 55.320331 
960.000000	 55.458305 
959.000000	 55.605456 
958.000000	 55.770563 
957.000000	 55.935564 
956.000000	 56.093353 
955.000000	 56.262341 
954.000000	 56.451121 
953.000000	 56.645336 
952.000000	 56.843087 
951.000000	 57.067577 
950.000000	 57.330902 
949.000000	 57.620816 
948.000000	 57.936328 
947.000000	 58.299976 
946.000000	 58.720710 
945.000000	 59.178371 
944.000000	 59.657254 
943.000000	 60.162177 
942.000000	 60.690710 
941.000000	 61.222167 
940.000000	 61.745403 
939.000000	 62.268346 
938.000000	 62.791214 
937.000000	 63.299438 
936.000000	 63.791048 
935.000000	 64.282214 
934.000000	 64.777893 
933.000000	 65.264268 
932.000000	 65.736404 
931.000000	 66.205645 
930.000000	 66.673218 
929.000000	 67.123503 
928.000000	 67.550702 
927.000000	 67.967298 
926.000000	 68.379617 
925.000000	 68.778698 
924.000000	 69.161096 
923.000000	 69.535029 
922.000000	 69.899953 
921.000000	 70.242968 
920.000000	 70.561623 
919.000000	 70.868954 
918.000000	 71.170894 
917.000000	 71.459938 
916.000000	 71.736510 
915.000000	 72.015478 
914.000000	 72.304861 
913.000000	 72.596982 
912.000000	 72.886293 
911.000000	 73.177242 
910.000000	 73.469560 
909.000000	 73.754687 
908.000000	 74.032149 
907.000000	 74.311778 
906.000000	 74.595567 
905.000000	 74.874806 
904.000000	 75.148905 
903.000000	 75.429786 
902.000000	 75.723594 
901.000000	 76.023128 
900.000000	 76.319762 
899.000000	 76.607132 
898.000000	 76.871609 
897.000000	 77.097944 
896.000000	 77.286885 
895.000000	 77.453017 
894.000000	 77.603774 
893.000000	 77.735005 
892.000000	 77.847184 
891.000000	 77.946865 
890.000000	 78.022895 
889.000000	 78.028719 
888.000000	 77.891305 
887.000000	 77.538137 
886.000000	 76.934663 
885.000000	 76.119109 
884.000000	 75.196561 
883.000000	 74.269566 
882.000000	 73.355126 
881.000000	 72.383310 
880.000000	 71.289875 
879.000000	 70.094517 
878.000000	 68.886708 
877.000000	 67.772922 
876.000000	 66.862587 
875.000000	 66.267906 
874.000000	 66.071559 
873.000000	 66.304087 
872.000000	 66.960473 
871.000000	 67.997605 
870.000000	 69.301572 
869.000000	 70.704191 
868.000000	 72.057373 
867.000000	 73.277961 
866.000000	 74.334346 
865.000000	 75.225800 
864.000000	 75.976525 
863.000000	 76.621100 
862.000000	 77.181786 
861.000000	 77.666313 
860.000000	 78.083906 
859.000000	 78.448577 
858.000000	 78.768398 
857.000000	 79.047268 
856.000000	 79.297893 
855.000000	 79.539476 
854.000000	 79.780229 
853.000000	 80.009405 
852.000000	 80.201963 
851.000000	 80.324901 
850.000000	 80.357173 
849.000000	 80.326098 
848.000000	 80.313453 
847.000000	 80.395695 
846.000000	 80.573062 
845.000000	 80.776609 
844.000000	 80.943187 
843.000000	 81.059244 
842.000000	 81.136436 
841.000000	 81.178790 
840.000000	 81.186347 
839.000000	 81.166581 
838.000000	 81.124884 
837.000000	 81.056514 
836.000000	 80.958731 
835.000000	 80.839258 
834.000000	 80.705529 
833.000000	 80.559079 
832.000000	 80.407840 
831.000000	 80.268827 
830.000000	 80.149801 
829.000000	 80.043562 
828.000000	 79.949874 
827.000000	 79.885879 
826.000000	 79.863340 
825.000000	 79.874262 
824.000000	 79.911168 
823.000000	 79.979537 
822.000000	 80.076866 
821.000000	 80.182078 
820.000000	 80.277987 
819.000000	 80.364993 
818.000000	 80.446060 
817.000000	 80.516875 
816.000000	 80.577108 
815.000000	 80.634429 
814.000000	 80.689852 
813.000000	 80.733499 
812.000000	 80.762112 
811.000000	 80.787372 
810.000000	 80.820058 
809.000000	 80.857412 
808.000000	 80.889817 
807.000000	 80.906973 
806.000000	 80.895753 
805.000000	 80.849157 
804.000000	 80.782079 
803.000000	 80.722224 
802.000000	 80.680811 
801.000000	 80.646815 
800.000000	 80.611872 
799.000000	 80.580556 
798.000000	 80.551341 
797.000000	 80.509930 
796.000000	 80.451185 
795.000000	 80.388231 
794.000000	 80.329584 
793.000000	 80.264660 
792.000000	 80.182190 
791.000000	 80.086374 
790.000000	 79.985275 
789.000000	 79.878824 
788.000000	 79.766627 
787.000000	 79.651583 
786.000000	 79.527211 
785.000000	 79.378175 
784.000000	 79.201987 
783.000000	 79.013642 
782.000000	 78.821400 
781.000000	 78.615616 
780.000000	 78.390013 
779.000000	 78.155198 
778.000000	 77.921500 
777.000000	 77.687033 
776.000000	 77.452316 
775.000000	 77.227221 
774.000000	 77.013803 
773.000000	 76.802610 
772.000000	 76.595662 
771.000000	 76.411367 
770.000000	 76.256437 
769.000000	 76.115572 
768.000000	 75.980124 
767.000000	 75.862758 
766.000000	 75.771087 
765.000000	 75.691194 
764.000000	 75.611177 
763.000000	 75.537686 
762.000000	 75.475737 
761.000000	 75.415704 
760.000000	 75.354104 
759.000000	 75.303922 
758.000000	 75.270334 
757.000000	 75.238601 
756.000000	 75.199246 
755.000000	 75.162001 
754.000000	 75.131890 
753.000000	 75.095723 
752.000000	 75.045956 
751.000000	 74.994277 
750.000000	 74.947983 
749.000000	 74.897022 
748.000000	 74.837359 
747.000000	 74.782531 
746.000000	 74.738622 
745.000000	 74.691921 
744.000000	 74.634455 
743.000000	 74.576333 
742.000000	 74.519657 
741.000000	 74.447266 
740.000000	 74.352135 
739.000000	 74.250632 
738.000000	 74.152127 
737.000000	 74.044344 
736.000000	 73.923203 
735.000000	 73.806854 
734.000000	 73.703914 
733.000000	 73.597737 
732.000000	 73.479593 
731.000000	 73.367845 
730.000000	 73.276726 
729.000000	 73.198409 
728.000000	 73.138121 
727.000000	 73.131374 
726.000000	 73.192766 
725.000000	 73.272328 
724.000000	 73.292340 
723.000000	 73.211110 
722.000000	 73.036224 
721.000000	 72.805125 
720.000000	 72.570868 
719.000000	 72.365911 
718.000000	 72.148709 
717.000000	 71.812857 
716.000000	 71.268381 
715.000000	 70.516062 
714.000000	 69.663362 
713.000000	 68.890040 
712.000000	 68.378404 
711.000000	 68.205510 
710.000000	 68.266916 
709.000000	 68.354122 
708.000000	 68.331236 
707.000000	 68.200374 
706.000000	 68.007047 
705.000000	 67.762310 
704.000000	 67.483179 
703.000000	 67.226985 
702.000000	 67.033907 
701.000000	 66.889072 
700.000000	 66.777188 
699.000000	 66.714693 
698.000000	 66.689445 
697.000000	 66.635406 
696.000000	 66.513489 
695.000000	 66.355520 
694.000000	 66.191179 
693.000000	 65.998590 
692.000000	 65.768695 
691.000000	 65.548156 
690.000000	 65.361852 
689.000000	 65.160753 
688.000000	 64.906858 
687.000000	 64.635300 
686.000000	 64.367153 
685.000000	 64.052044 
684.000000	 63.664425 
683.000000	 63.258633 
682.000000	 62.866136 
681.000000	 62.436170 
680.000000	 61.937718 
679.000000	 61.414771 
678.000000	 60.873177 
677.000000	 60.222183 
676.000000	 59.406072 
675.000000	 58.467511 
674.000000	 57.431499 
673.000000	 56.284718 
672.000000	 55.116543 
671.000000	 54.097848 
670.000000	 53.278308 
669.000000	 52.531144 
668.000000	 51.889113 
667.000000	 51.676965 
666.000000	 51.867037 
665.000000	 52.275505 
664.000000	 52.828445 
663.000000	 53.499932 
662.000000	 54.204077 
661.000000	 54.824477 
660.000000	 55.338349 
659.000000	 55.806362 
658.000000	 56.249584 
657.000000	 56.621414 
656.000000	 56.913387 
655.000000	 57.189355 
654.000000	 57.487248 
653.000000	 57.765914 
652.000000	 57.991120 
651.000000	 58.193229 
650.000000	 58.397109 
649.000000	 58.568867 
648.000000	 58.684091 
647.000000	 58.770008 
646.000000	 58.828637 
645.000000	 58.804943 
644.000000	 58.681879 
643.000000	 58.523971 
642.000000	 58.371994 
641.000000	 58.175604 
640.000000	 57.906595 
639.000000	 57.648428 
638.000000	 57.480411 
637.000000	 57.370464 
636.000000	 57.294800 
635.000000	 57.337018 
634.000000	 57.550084 
633.000000	 57.859481 
632.000000	 58.212559 
631.000000	 58.659148 
630.000000	 59.201060 
629.000000	 59.725184 
628.000000	 60.169091 
627.000000	 60.600228 
626.000000	 61.058954 
625.000000	 61.462819 
624.000000	 61.754853 
623.000000	 61.995181 
622.000000	 62.211069 
621.000000	 62.304753 
620.000000	 62.214497 
619.000000	 62.012016 
618.000000	 61.728283 
617.000000	 61.240741 
616.000000	 60.503972 
615.000000	 59.703369 
614.000000	 58.995180 
613.000000	 58.312392 
612.000000	 57.627512 
611.000000	 57.141487 
610.000000	 56.983834 
609.000000	 57.004143 
608.000000	 57.095894 
607.000000	 57.381084 
606.000000	 57.897102 
605.000000	 58.452765 
604.000000	 58.957279 
603.000000	 59.533771 
602.000000	 60.219033 
601.000000	 60.871429 
600.000000	 61.450822 
599.000000	 62.080104 
598.000000	 62.766011 
597.000000	 63.338342 
596.000000	 63.738540 
595.000000	 64.107150 
594.000000	 64.512722 
593.000000	 64.832356 
592.000000	 65.024982 
591.000000	 65.270832 
590.000000	 65.678485 
589.000000	 66.087619 
588.000000	 66.332643 
587.000000	 66.446896 
586.000000	 66.502624 
585.000000	 66.469153 
584.000000	 66.387686 
583.000000	 66.462787 
582.000000	 66.762348 
581.000000	 67.048636 
580.000000	 67.157016 
579.000000	 67.234995 
578.000000	 67.413750 
577.000000	 67.538350 
576.000000	 67.522579 
575.000000	 67.592448 
574.000000	 67.852102 
573.000000	 68.003942 
572.000000	 67.849072 
571.000000	 67.634219 
570.000000	 67.654514 
569.000000	 67.812143 
568.000000	 67.932707 
567.000000	 68.075634 
566.000000	 68.261813 
565.000000	 68.303670 
564.000000	 68.185619 
563.000000	 68.175207 
562.000000	 68.312951 
561.000000	 68.239698 
560.000000	 67.803388 
559.000000	 67.363525 
558.000000	 67.262741 
557.000000	 67.319936 
556.000000	 67.321136 
555.000000	 67.401067 
554.000000	 67.553719 
553.000000	 67.394122 
552.000000	 66.832794 
551.000000	 66.373409 
550.000000	 66.316722 

