PE IR                   SPECTRUM    ASCII       PEDS        1.60        
  -1
FR220609.ASC
22/05/09
15:40:35.00
22/05/09
15:40:35.00
Administrator
Primer cinza claro raspado na superficie da carenagem eixo de transmissao - IR/UATR 80 N - Vitor
550.000000
20









FRONTIER FT-IR/NIR,CPU32 MAIN 00.09.1072 09-JANUARY-2014 12:55:01
MIR TGS
MIR
OPTKBR
100262
0.200000

4.000000
FORTE
RAZ„O
ESPECTRO
MAGNITUDE
UNIVERSAL ATR
DUPLO

COMBINADO


0


#HDR
-1
-1
#GR
CM-1
%T
0.00002384185791015625
0.0
4000.000000
-1.000000
3451
8
97.484350
55.216829
#DATA
4000.000000	95.890821 
3999.000000	95.892588 
3998.000000	95.894688 
3997.000000	95.897978 
3996.000000	95.902374 
3995.000000	95.907525 
3994.000000	95.912292 
3993.000000	95.915397 
3992.000000	95.916143 
3991.000000	95.914757 
3990.000000	95.912208 
3989.000000	95.909655 
3988.000000	95.907639 
3987.000000	95.906307 
3986.000000	95.905902 
3985.000000	95.906927 
3984.000000	95.909715 
3983.000000	95.913559 
3982.000000	95.916945 
3981.000000	95.918578 
3980.000000	95.918547 
3979.000000	95.918137 
3978.000000	95.918553 
3977.000000	95.919948 
3976.000000	95.921669 
3975.000000	95.923264 
3974.000000	95.924754 
3973.000000	95.926160 
3972.000000	95.927153 
3971.000000	95.927388 
3970.000000	95.927107 
3969.000000	95.927116 
3968.000000	95.927943 
3967.000000	95.929339 
3966.000000	95.930490 
3965.000000	95.930803 
3964.000000	95.930253 
3963.000000	95.929451 
3962.000000	95.928917 
3961.000000	95.928554 
3960.000000	95.928414 
3959.000000	95.928564 
3958.000000	95.929114 
3957.000000	95.929773 
3956.000000	95.929287 
3955.000000	95.926482 
3954.000000	95.921159 
3953.000000	95.915023 
3952.000000	95.911493 
3951.000000	95.913566 
3950.000000	95.921827 
3949.000000	95.932808 
3948.000000	95.940738 
3947.000000	95.941986 
3946.000000	95.936997 
3945.000000	95.929802 
3944.000000	95.925042 
3943.000000	95.925256 
3942.000000	95.929321 
3941.000000	95.934029 
3940.000000	95.938462 
3939.000000	95.943382 
3938.000000	95.949315 
3937.000000	95.956225 
3936.000000	95.962561 
3935.000000	95.966956 
3934.000000	95.968582 
3933.000000	95.967002 
3932.000000	95.962388 
3931.000000	95.955503 
3930.000000	95.948846 
3929.000000	95.943913 
3928.000000	95.940035 
3927.000000	95.936536 
3926.000000	95.935244 
3925.000000	95.938513 
3924.000000	95.944861 
3923.000000	95.950606 
3922.000000	95.953934 
3921.000000	95.957140 
3920.000000	95.963331 
3919.000000	95.972046 
3918.000000	95.980005 
3917.000000	95.983311 
3916.000000	95.981322 
3915.000000	95.977147 
3914.000000	95.973370 
3913.000000	95.971988 
3912.000000	95.973083 
3911.000000	95.974822 
3910.000000	95.975310 
3909.000000	95.973728 
3908.000000	95.969986 
3907.000000	95.965704 
3906.000000	95.963992 
3905.000000	95.969508 
3904.000000	95.981627 
3903.000000	95.991159 
3902.000000	95.989726 
3901.000000	95.978795 
3900.000000	95.967199 
3899.000000	95.962133 
3898.000000	95.963727 
3897.000000	95.967571 
3896.000000	95.970997 
3895.000000	95.974158 
3894.000000	95.977231 
3893.000000	95.982449 
3892.000000	95.990231 
3891.000000	95.997873 
3890.000000	96.003524 
3889.000000	96.005290 
3888.000000	96.003472 
3887.000000	96.000858 
3886.000000	95.999699 
3885.000000	95.997656 
3884.000000	95.990382 
3883.000000	95.979034 
3882.000000	95.970509 
3881.000000	95.972218 
3880.000000	95.981828 
3879.000000	95.989168 
3878.000000	95.990792 
3877.000000	95.987254 
3876.000000	95.981977 
3875.000000	95.981925 
3874.000000	95.988653 
3873.000000	95.997179 
3872.000000	96.002283 
3871.000000	96.005877 
3870.000000	96.012655 
3869.000000	96.017961 
3868.000000	96.015772 
3867.000000	96.006699 
3866.000000	95.996992 
3865.000000	95.995740 
3864.000000	96.003429 
3863.000000	96.013143 
3862.000000	96.020310 
3861.000000	96.024675 
3860.000000	96.026979 
3859.000000	96.028985 
3858.000000	96.031342 
3857.000000	96.031629 
3856.000000	96.025997 
3855.000000	96.015300 
3854.000000	96.014641 
3853.000000	96.023617 
3852.000000	96.022392 
3851.000000	96.014986 
3850.000000	96.012344 
3849.000000	96.015720 
3848.000000	96.020821 
3847.000000	96.022988 
3846.000000	96.021472 
3845.000000	96.017650 
3844.000000	96.014189 
3843.000000	96.012626 
3842.000000	96.012285 
3841.000000	96.011786 
3840.000000	96.010677 
3839.000000	96.010958 
3838.000000	96.012678 
3837.000000	96.014475 
3836.000000	96.017451 
3835.000000	96.022380 
3834.000000	96.028328 
3833.000000	96.033713 
3832.000000	96.036671 
3831.000000	96.036841 
3830.000000	96.034994 
3829.000000	96.032469 
3828.000000	96.031485 
3827.000000	96.034651 
3826.000000	96.041916 
3825.000000	96.048916 
3824.000000	96.049718 
3823.000000	96.041504 
3822.000000	96.032746 
3821.000000	96.032292 
3820.000000	96.034962 
3819.000000	96.035613 
3818.000000	96.033311 
3817.000000	96.032389 
3816.000000	96.036372 
3815.000000	96.040924 
3814.000000	96.042141 
3813.000000	96.042174 
3812.000000	96.044788 
3811.000000	96.051360 
3810.000000	96.058603 
3809.000000	96.062931 
3808.000000	96.064687 
3807.000000	96.067055 
3806.000000	96.068673 
3805.000000	96.064426 
3804.000000	96.053188 
3803.000000	96.040124 
3802.000000	96.035137 
3801.000000	96.037696 
3800.000000	96.039071 
3799.000000	96.038268 
3798.000000	96.039088 
3797.000000	96.043494 
3796.000000	96.050358 
3795.000000	96.054695 
3794.000000	96.055468 
3793.000000	96.055519 
3792.000000	96.057913 
3791.000000	96.062583 
3790.000000	96.066416 
3789.000000	96.067070 
3788.000000	96.064669 
3787.000000	96.061503 
3786.000000	96.060671 
3785.000000	96.063431 
3784.000000	96.067806 
3783.000000	96.070601 
3782.000000	96.069462 
3781.000000	96.066402 
3780.000000	96.067464 
3779.000000	96.074566 
3778.000000	96.083088 
3777.000000	96.087861 
3776.000000	96.088672 
3775.000000	96.088191 
3774.000000	96.087740 
3773.000000	96.087043 
3772.000000	96.086154 
3771.000000	96.088337 
3770.000000	96.094532 
3769.000000	96.099845 
3768.000000	96.098751 
3767.000000	96.093448 
3766.000000	96.089175 
3765.000000	96.088246 
3764.000000	96.089555 
3763.000000	96.090276 
3762.000000	96.089936 
3761.000000	96.091197 
3760.000000	96.096370 
3759.000000	96.103955 
3758.000000	96.110269 
3757.000000	96.116038 
3756.000000	96.121733 
3755.000000	96.125920 
3754.000000	96.128216 
3753.000000	96.132960 
3752.000000	96.143690 
3751.000000	96.154412 
3750.000000	96.152557 
3749.000000	96.140598 
3748.000000	96.130602 
3747.000000	96.124264 
3746.000000	96.116854 
3745.000000	96.107496 
3744.000000	96.095031 
3743.000000	96.081394 
3742.000000	96.073713 
3741.000000	96.074468 
3740.000000	96.080301 
3739.000000	96.086164 
3738.000000	96.085746 
3737.000000	96.080039 
3736.000000	96.079553 
3735.000000	96.091188 
3734.000000	96.111111 
3733.000000	96.128179 
3732.000000	96.132154 
3731.000000	96.122756 
3730.000000	96.107075 
3729.000000	96.090305 
3728.000000	96.075144 
3727.000000	96.064336 
3726.000000	96.059556 
3725.000000	96.059286 
3724.000000	96.061864 
3723.000000	96.067276 
3722.000000	96.074500 
3721.000000	96.080379 
3720.000000	96.083811 
3719.000000	96.087106 
3718.000000	96.092058 
3717.000000	96.097288 
3716.000000	96.099034 
3715.000000	96.094305 
3714.000000	96.080558 
3713.000000	96.056419 
3712.000000	96.023195 
3711.000000	95.986080 
3710.000000	95.950272 
3709.000000	95.916439 
3708.000000	95.880569 
3707.000000	95.838961 
3706.000000	95.791049 
3705.000000	95.736515 
3704.000000	95.675807 
3703.000000	95.611563 
3702.000000	95.545541 
3701.000000	95.477450 
3700.000000	95.407239 
3699.000000	95.337637 
3698.000000	95.269275 
3697.000000	95.200201 
3696.000000	95.127309 
3695.000000	95.047940 
3694.000000	94.960145 
3693.000000	94.863646 
3692.000000	94.762380 
3691.000000	94.663449 
3690.000000	94.570584 
3689.000000	94.477662 
3688.000000	94.380950 
3687.000000	94.291644 
3686.000000	94.220467 
3685.000000	94.165525 
3684.000000	94.119908 
3683.000000	94.074299 
3682.000000	94.012299 
3681.000000	93.912687 
3680.000000	93.763880 
3679.000000	93.575919 
3678.000000	93.381987 
3677.000000	93.239081 
3676.000000	93.220344 
3675.000000	93.343742 
3674.000000	93.537668 
3673.000000	93.728176 
3672.000000	93.896515 
3671.000000	94.049164 
3670.000000	94.184223 
3669.000000	94.285221 
3668.000000	94.352453 
3667.000000	94.404524 
3666.000000	94.453202 
3665.000000	94.499368 
3664.000000	94.539770 
3663.000000	94.572055 
3662.000000	94.597633 
3661.000000	94.621894 
3660.000000	94.649773 
3659.000000	94.680859 
3658.000000	94.710643 
3657.000000	94.734763 
3656.000000	94.752202 
3655.000000	94.765839 
3654.000000	94.780277 
3653.000000	94.795287 
3652.000000	94.807098 
3651.000000	94.813294 
3650.000000	94.814036 
3649.000000	94.804986 
3648.000000	94.787056 
3647.000000	94.770459 
3646.000000	94.764157 
3645.000000	94.769521 
3644.000000	94.782745 
3643.000000	94.798859 
3642.000000	94.813150 
3641.000000	94.823613 
3640.000000	94.830487 
3639.000000	94.835909 
3638.000000	94.842147 
3637.000000	94.849602 
3636.000000	94.857091 
3635.000000	94.863511 
3634.000000	94.870533 
3633.000000	94.880203 
3632.000000	94.891225 
3631.000000	94.897913 
3630.000000	94.898820 
3629.000000	94.896823 
3628.000000	94.891725 
3627.000000	94.888471 
3626.000000	94.891773 
3625.000000	94.900617 
3624.000000	94.911590 
3623.000000	94.923656 
3622.000000	94.935960 
3621.000000	94.946785 
3620.000000	94.952213 
3619.000000	94.947452 
3618.000000	94.931673 
3617.000000	94.913847 
3616.000000	94.904737 
3615.000000	94.906956 
3614.000000	94.915802 
3613.000000	94.923365 
3612.000000	94.923920 
3611.000000	94.916976 
3610.000000	94.903030 
3609.000000	94.883349 
3608.000000	94.862171 
3607.000000	94.844764 
3606.000000	94.832786 
3605.000000	94.823260 
3604.000000	94.812432 
3603.000000	94.799866 
3602.000000	94.788086 
3601.000000	94.779578 
3600.000000	94.774361 
3599.000000	94.770042 
3598.000000	94.763181 
3597.000000	94.751416 
3596.000000	94.736416 
3595.000000	94.722880 
3594.000000	94.715235 
3593.000000	94.714237 
3592.000000	94.717579 
3591.000000	94.721402 
3590.000000	94.721867 
3589.000000	94.716389 
3588.000000	94.705229 
3587.000000	94.688519 
3586.000000	94.669314 
3585.000000	94.655255 
3584.000000	94.650079 
3583.000000	94.651689 
3582.000000	94.655129 
3581.000000	94.655437 
3580.000000	94.651018 
3579.000000	94.643453 
3578.000000	94.634921 
3577.000000	94.626570 
3576.000000	94.619036 
3575.000000	94.612877 
3574.000000	94.608112 
3573.000000	94.604712 
3572.000000	94.602989 
3571.000000	94.602512 
3570.000000	94.600479 
3569.000000	94.593757 
3568.000000	94.581136 
3567.000000	94.562020 
3566.000000	94.538135 
3565.000000	94.517566 
3564.000000	94.507216 
3563.000000	94.506372 
3562.000000	94.510380 
3561.000000	94.515281 
3560.000000	94.518662 
3559.000000	94.519945 
3558.000000	94.519122 
3557.000000	94.516601 
3556.000000	94.513512 
3555.000000	94.511114 
3554.000000	94.509524 
3553.000000	94.508480 
3552.000000	94.508262 
3551.000000	94.509561 
3550.000000	94.512545 
3549.000000	94.516034 
3548.000000	94.518167 
3547.000000	94.517626 
3546.000000	94.513324 
3545.000000	94.505319 
3544.000000	94.496328 
3543.000000	94.489139 
3542.000000	94.484409 
3541.000000	94.481638 
3540.000000	94.480216 
3539.000000	94.480130 
3538.000000	94.480845 
3537.000000	94.481066 
3536.000000	94.480017 
3535.000000	94.478184 
3534.000000	94.476764 
3533.000000	94.476055 
3532.000000	94.475242 
3531.000000	94.473332 
3530.000000	94.470614 
3529.000000	94.468149 
3528.000000	94.466667 
3527.000000	94.465537 
3526.000000	94.463597 
3525.000000	94.460273 
3524.000000	94.455880 
3523.000000	94.450837 
3522.000000	94.445159 
3521.000000	94.438986 
3520.000000	94.432738 
3519.000000	94.427129 
3518.000000	94.422958 
3517.000000	94.420426 
3516.000000	94.419142 
3515.000000	94.418491 
3514.000000	94.418181 
3513.000000	94.418149 
3512.000000	94.418167 
3511.000000	94.417347 
3510.000000	94.414551 
3509.000000	94.409113 
3508.000000	94.402034 
3507.000000	94.395533 
3506.000000	94.391252 
3505.000000	94.389846 
3504.000000	94.390696 
3503.000000	94.391115 
3502.000000	94.388450 
3501.000000	94.382910 
3500.000000	94.377134 
3499.000000	94.373556 
3498.000000	94.372295 
3497.000000	94.371311 
3496.000000	94.368575 
3495.000000	94.363908 
3494.000000	94.359034 
3493.000000	94.355668 
3492.000000	94.353676 
3491.000000	94.351568 
3490.000000	94.348386 
3489.000000	94.344380 
3488.000000	94.340057 
3487.000000	94.335223 
3486.000000	94.329560 
3485.000000	94.323946 
3484.000000	94.319931 
3483.000000	94.317640 
3482.000000	94.315262 
3481.000000	94.310803 
3480.000000	94.304333 
3479.000000	94.297555 
3478.000000	94.291558 
3477.000000	94.286192 
3476.000000	94.281214 
3475.000000	94.276717 
3474.000000	94.272698 
3473.000000	94.269069 
3472.000000	94.265734 
3471.000000	94.262274 
3470.000000	94.257772 
3469.000000	94.251360 
3468.000000	94.242964 
3467.000000	94.233190 
3466.000000	94.222430 
3465.000000	94.211081 
3464.000000	94.200386 
3463.000000	94.192041 
3462.000000	94.186648 
3461.000000	94.182879 
3460.000000	94.178477 
3459.000000	94.171774 
3458.000000	94.162372 
3457.000000	94.151271 
3456.000000	94.140231 
3455.000000	94.130430 
3454.000000	94.121859 
3453.000000	94.113879 
3452.000000	94.106263 
3451.000000	94.098638 
3450.000000	94.090239 
3449.000000	94.080984 
3448.000000	94.071889 
3447.000000	94.063332 
3446.000000	94.054101 
3445.000000	94.043319 
3444.000000	94.032219 
3443.000000	94.022747 
3442.000000	94.014889 
3441.000000	94.007090 
3440.000000	93.998763 
3439.000000	93.990829 
3438.000000	93.984083 
3437.000000	93.978348 
3436.000000	93.972819 
3435.000000	93.966299 
3434.000000	93.957631 
3433.000000	93.946686 
3432.000000	93.935146 
3431.000000	93.924874 
3430.000000	93.916289 
3429.000000	93.908870 
3428.000000	93.902372 
3427.000000	93.896396 
3426.000000	93.889421 
3425.000000	93.879841 
3424.000000	93.867761 
3423.000000	93.855092 
3422.000000	93.844116 
3421.000000	93.836393 
3420.000000	93.832140 
3419.000000	93.829641 
3418.000000	93.826056 
3417.000000	93.819661 
3416.000000	93.811266 
3415.000000	93.803178 
3414.000000	93.797291 
3413.000000	93.794297 
3412.000000	93.793597 
3411.000000	93.793299 
3410.000000	93.791263 
3409.000000	93.787028 
3408.000000	93.781968 
3407.000000	93.777237 
3406.000000	93.772608 
3405.000000	93.767889 
3404.000000	93.763810 
3403.000000	93.760572 
3402.000000	93.756872 
3401.000000	93.751442 
3400.000000	93.744655 
3399.000000	93.737493 
3398.000000	93.730343 
3397.000000	93.723920 
3396.000000	93.720093 
3395.000000	93.719793 
3394.000000	93.720742 
3393.000000	93.719360 
3392.000000	93.714828 
3391.000000	93.709564 
3390.000000	93.705818 
3389.000000	93.703606 
3388.000000	93.701853 
3387.000000	93.699975 
3386.000000	93.697797 
3385.000000	93.695330 
3384.000000	93.693231 
3383.000000	93.692422 
3382.000000	93.692854 
3381.000000	93.693281 
3380.000000	93.692755 
3379.000000	93.691491 
3378.000000	93.690245 
3377.000000	93.689656 
3376.000000	93.690466 
3375.000000	93.693322 
3374.000000	93.697726 
3373.000000	93.702045 
3372.000000	93.705242 
3371.000000	93.708080 
3370.000000	93.711931 
3369.000000	93.716863 
3368.000000	93.721439 
3367.000000	93.724378 
3366.000000	93.726120 
3365.000000	93.728847 
3364.000000	93.734810 
3363.000000	93.744196 
3362.000000	93.754490 
3361.000000	93.762309 
3360.000000	93.766015 
3359.000000	93.766685 
3358.000000	93.767118 
3357.000000	93.770111 
3356.000000	93.776789 
3355.000000	93.785727 
3354.000000	93.794173 
3353.000000	93.800920 
3352.000000	93.807545 
3351.000000	93.816240 
3350.000000	93.827014 
3349.000000	93.837864 
3348.000000	93.846919 
3347.000000	93.853660 
3346.000000	93.858734 
3345.000000	93.863703 
3344.000000	93.870298 
3343.000000	93.878532 
3342.000000	93.886303 
3341.000000	93.892104 
3340.000000	93.897474 
3339.000000	93.905053 
3338.000000	93.914625 
3337.000000	93.923171 
3336.000000	93.928893 
3335.000000	93.933254 
3334.000000	93.938695 
3333.000000	93.946152 
3332.000000	93.955146 
3331.000000	93.964544 
3330.000000	93.972742 
3329.000000	93.978788 
3328.000000	93.983948 
3327.000000	93.990724 
3326.000000	93.999593 
3325.000000	94.008140 
3324.000000	94.014423 
3323.000000	94.019625 
3322.000000	94.026201 
3321.000000	94.034517 
3320.000000	94.042858 
3319.000000	94.050065 
3318.000000	94.056714 
3317.000000	94.063813 
3316.000000	94.071617 
3315.000000	94.079848 
3314.000000	94.088315 
3313.000000	94.096885 
3312.000000	94.105248 
3311.000000	94.113082 
3310.000000	94.120425 
3309.000000	94.127647 
3308.000000	94.134894 
3307.000000	94.141634 
3306.000000	94.147094 
3305.000000	94.151233 
3304.000000	94.154764 
3303.000000	94.158040 
3302.000000	94.160648 
3301.000000	94.162769 
3300.000000	94.166353 
3299.000000	94.173886 
3298.000000	94.186020 
3297.000000	94.200721 
3296.000000	94.214589 
3295.000000	94.224624 
3294.000000	94.229624 
3293.000000	94.231072 
3292.000000	94.232485 
3291.000000	94.236840 
3290.000000	94.244385 
3289.000000	94.253093 
3288.000000	94.260666 
3287.000000	94.265651 
3286.000000	94.267896 
3285.000000	94.269311 
3284.000000	94.273382 
3283.000000	94.282192 
3282.000000	94.293945 
3281.000000	94.304909 
3280.000000	94.313495 
3279.000000	94.321033 
3278.000000	94.328819 
3277.000000	94.336349 
3276.000000	94.342856 
3275.000000	94.348696 
3274.000000	94.354350 
3273.000000	94.359484 
3272.000000	94.363990 
3271.000000	94.368883 
3270.000000	94.375261 
3269.000000	94.383057 
3268.000000	94.391543 
3267.000000	94.400300 
3266.000000	94.408941 
3265.000000	94.416452 
3264.000000	94.421857 
3263.000000	94.425475 
3262.000000	94.428831 
3261.000000	94.433456 
3260.000000	94.439886 
3259.000000	94.447660 
3258.000000	94.455770 
3257.000000	94.463379 
3256.000000	94.470448 
3255.000000	94.477702 
3254.000000	94.485914 
3253.000000	94.495233 
3252.000000	94.505032 
3251.000000	94.513948 
3250.000000	94.520577 
3249.000000	94.524729 
3248.000000	94.527989 
3247.000000	94.532323 
3246.000000	94.538005 
3245.000000	94.543540 
3244.000000	94.547735 
3243.000000	94.551117 
3242.000000	94.555027 
3241.000000	94.560186 
3240.000000	94.566617 
3239.000000	94.574294 
3238.000000	94.583107 
3237.000000	94.592566 
3236.000000	94.602046 
3235.000000	94.611287 
3234.000000	94.620314 
3233.000000	94.628926 
3232.000000	94.636572 
3231.000000	94.642652 
3230.000000	94.647072 
3229.000000	94.650498 
3228.000000	94.654029 
3227.000000	94.658714 
3226.000000	94.665489 
3225.000000	94.675004 
3224.000000	94.686549 
3223.000000	94.697154 
3222.000000	94.703338 
3221.000000	94.704872 
3220.000000	94.705868 
3219.000000	94.710975 
3218.000000	94.720991 
3217.000000	94.733309 
3216.000000	94.745404 
3215.000000	94.755997 
3214.000000	94.763578 
3213.000000	94.766658 
3212.000000	94.766206 
3211.000000	94.765838 
3210.000000	94.768581 
3209.000000	94.774480 
3208.000000	94.781694 
3207.000000	94.788605 
3206.000000	94.794309 
3205.000000	94.798548 
3204.000000	94.802141 
3203.000000	94.806589 
3202.000000	94.812398 
3201.000000	94.818698 
3200.000000	94.824922 
3199.000000	94.831803 
3198.000000	94.839759 
3197.000000	94.847553 
3196.000000	94.853818 
3195.000000	94.859312 
3194.000000	94.866251 
3193.000000	94.875503 
3192.000000	94.885454 
3191.000000	94.893841 
3190.000000	94.900273 
3189.000000	94.906629 
3188.000000	94.915280 
3187.000000	94.927013 
3186.000000	94.940460 
3185.000000	94.953314 
3184.000000	94.963632 
3183.000000	94.970307 
3182.000000	94.973173 
3181.000000	94.973560 
3180.000000	94.974073 
3179.000000	94.976728 
3178.000000	94.981347 
3177.000000	94.986477 
3176.000000	94.991335 
3175.000000	94.996028 
3174.000000	95.000543 
3173.000000	95.004918 
3172.000000	95.010245 
3171.000000	95.018018 
3170.000000	95.028135 
3169.000000	95.038420 
3168.000000	95.046441 
3167.000000	95.051165 
3166.000000	95.053134 
3165.000000	95.054312 
3164.000000	95.057638 
3163.000000	95.065338 
3162.000000	95.076887 
3161.000000	95.089175 
3160.000000	95.098972 
3159.000000	95.105128 
3158.000000	95.108909 
3157.000000	95.112912 
3156.000000	95.119132 
3155.000000	95.127188 
3154.000000	95.134878 
3153.000000	95.141242 
3152.000000	95.148010 
3151.000000	95.156867 
3150.000000	95.166412 
3149.000000	95.173615 
3148.000000	95.177705 
3147.000000	95.180740 
3146.000000	95.184594 
3145.000000	95.189472 
3144.000000	95.195349 
3143.000000	95.202915 
3142.000000	95.212565 
3141.000000	95.223604 
3140.000000	95.234673 
3139.000000	95.243945 
3138.000000	95.249419 
3137.000000	95.250698 
3136.000000	95.250529 
3135.000000	95.252643 
3134.000000	95.257838 
3133.000000	95.263773 
3132.000000	95.268705 
3131.000000	95.273446 
3130.000000	95.279112 
3129.000000	95.285150 
3128.000000	95.290752 
3127.000000	95.296253 
3126.000000	95.302024 
3125.000000	95.307441 
3124.000000	95.311974 
3123.000000	95.316224 
3122.000000	95.320954 
3121.000000	95.325838 
3120.000000	95.329821 
3119.000000	95.332151 
3118.000000	95.333026 
3117.000000	95.333832 
3116.000000	95.336423 
3115.000000	95.341052 
3114.000000	95.345246 
3113.000000	95.346157 
3112.000000	95.343896 
3111.000000	95.340837 
3110.000000	95.338060 
3109.000000	95.334641 
3108.000000	95.330528 
3107.000000	95.327890 
3106.000000	95.328950 
3105.000000	95.334061 
3104.000000	95.342290 
3103.000000	95.352210 
3102.000000	95.361810 
3101.000000	95.369445 
3100.000000	95.375244 
3099.000000	95.380450 
3098.000000	95.384980 
3097.000000	95.387209 
3096.000000	95.386371 
3095.000000	95.383615 
3094.000000	95.380268 
3093.000000	95.376268 
3092.000000	95.370682 
3091.000000	95.362469 
3090.000000	95.350402 
3089.000000	95.333765 
3088.000000	95.313891 
3087.000000	95.294090 
3086.000000	95.277730 
3085.000000	95.267128 
3084.000000	95.263911 
3083.000000	95.268814 
3082.000000	95.280588 
3081.000000	95.296204 
3080.000000	95.312630 
3079.000000	95.327773 
3078.000000	95.340068 
3077.000000	95.348832 
3076.000000	95.355096 
3075.000000	95.360471 
3074.000000	95.364767 
3073.000000	95.366001 
3072.000000	95.363085 
3071.000000	95.356974 
3070.000000	95.348921 
3069.000000	95.338832 
3068.000000	95.325766 
3067.000000	95.309115 
3066.000000	95.289228 
3065.000000	95.268145 
3064.000000	95.249717 
3063.000000	95.237485 
3062.000000	95.232022 
3061.000000	95.231507 
3060.000000	95.234868 
3059.000000	95.243213 
3058.000000	95.257845 
3057.000000	95.278097 
3056.000000	95.301704 
3055.000000	95.325995 
3054.000000	95.348590 
3053.000000	95.368043 
3052.000000	95.384774 
3051.000000	95.400622 
3050.000000	95.416940 
3049.000000	95.433356 
3048.000000	95.448319 
3047.000000	95.460119 
3046.000000	95.467507 
3045.000000	95.470368 
3044.000000	95.469961 
3043.000000	95.467561 
3042.000000	95.462533 
3041.000000	95.452824 
3040.000000	95.437344 
3039.000000	95.417158 
3038.000000	95.393885 
3037.000000	95.367877 
3036.000000	95.338150 
3035.000000	95.303158 
3034.000000	95.261515 
3033.000000	95.213056 
3032.000000	95.160048 
3031.000000	95.106901 
3030.000000	95.058499 
3029.000000	95.019178 
3028.000000	94.992707 
3027.000000	94.981831 
3026.000000	94.987101 
3025.000000	95.006933 
3024.000000	95.039027 
3023.000000	95.080733 
3022.000000	95.128371 
3021.000000	95.177590 
3020.000000	95.224974 
3019.000000	95.268372 
3018.000000	95.305725 
3017.000000	95.334999 
3016.000000	95.355831 
3015.000000	95.369932 
3014.000000	95.379166 
3013.000000	95.383897 
3012.000000	95.383421 
3011.000000	95.377107 
3010.000000	95.364855 
3009.000000	95.347579 
3008.000000	95.327720 
3007.000000	95.308341 
3006.000000	95.290931 
3005.000000	95.274442 
3004.000000	95.256827 
3003.000000	95.237521 
3002.000000	95.218343 
3001.000000	95.202394 
3000.000000	95.191564 
2999.000000	95.184635 
2998.000000	95.177833 
2997.000000	95.167583 
2996.000000	95.152607 
2995.000000	95.133253 
2994.000000	95.109932 
2993.000000	95.082868 
2992.000000	95.052465 
2991.000000	95.018519 
2990.000000	94.979761 
2989.000000	94.935347 
2988.000000	94.886673 
2987.000000	94.836272 
2986.000000	94.785103 
2985.000000	94.731717 
2984.000000	94.674045 
2983.000000	94.610958 
2982.000000	94.542520 
2981.000000	94.469836 
2980.000000	94.394397 
2979.000000	94.316546 
2978.000000	94.234755 
2977.000000	94.147513 
2976.000000	94.055344 
2975.000000	93.959997 
2974.000000	93.862061 
2973.000000	93.760968 
2972.000000	93.656919 
2971.000000	93.551519 
2970.000000	93.446187 
2969.000000	93.341146 
2968.000000	93.235848 
2967.000000	93.129897 
2966.000000	93.024085 
2965.000000	92.921466 
2964.000000	92.826714 
2963.000000	92.742666 
2962.000000	92.668368 
2961.000000	92.601872 
2960.000000	92.544539 
2959.000000	92.500174 
2958.000000	92.470413 
2957.000000	92.452956 
2956.000000	92.444817 
2955.000000	92.444906 
2954.000000	92.452373 
2953.000000	92.463927 
2952.000000	92.474271 
2951.000000	92.478692 
2950.000000	92.475001 
2949.000000	92.463700 
2948.000000	92.446526 
2947.000000	92.423642 
2946.000000	92.392180 
2945.000000	92.348235 
2944.000000	92.290918 
2943.000000	92.223527 
2942.000000	92.151149 
2941.000000	92.077683 
2940.000000	92.005121 
2939.000000	91.934226 
2938.000000	91.865595 
2937.000000	91.800660 
2936.000000	91.741717 
2935.000000	91.690372 
2934.000000	91.646505 
2933.000000	91.609779 
2932.000000	91.581667 
2931.000000	91.564227 
2930.000000	91.557244 
2929.000000	91.558060 
2928.000000	91.564605 
2927.000000	91.577368 
2926.000000	91.598145 
2925.000000	91.627985 
2924.000000	91.666704 
2923.000000	91.713433 
2922.000000	91.767395 
2921.000000	91.828697 
2920.000000	91.898198 
2919.000000	91.975905 
2918.000000	92.059763 
2917.000000	92.146808 
2916.000000	92.234791 
2915.000000	92.321957 
2914.000000	92.405996 
2913.000000	92.484878 
2912.000000	92.558450 
2911.000000	92.627995 
2910.000000	92.694654 
2909.000000	92.759156 
2908.000000	92.822667 
2907.000000	92.886323 
2906.000000	92.950066 
2905.000000	93.013031 
2904.000000	93.074715 
2903.000000	93.134516 
2902.000000	93.190906 
2901.000000	93.241885 
2900.000000	93.288365 
2899.000000	93.332971 
2898.000000	93.377319 
2897.000000	93.420639 
2896.000000	93.461015 
2895.000000	93.497133 
2894.000000	93.529142 
2893.000000	93.559077 
2892.000000	93.589837 
2891.000000	93.622430 
2890.000000	93.654310 
2889.000000	93.681731 
2888.000000	93.703325 
2887.000000	93.720221 
2886.000000	93.733659 
2885.000000	93.743867 
2884.000000	93.750563 
2883.000000	93.752443 
2882.000000	93.746680 
2881.000000	93.730920 
2880.000000	93.705781 
2879.000000	93.673793 
2878.000000	93.636837 
2877.000000	93.596539 
2876.000000	93.556758 
2875.000000	93.522916 
2874.000000	93.498493 
2873.000000	93.484006 
2872.000000	93.479469 
2871.000000	93.485381 
2870.000000	93.500802 
2869.000000	93.522565 
2868.000000	93.546799 
2867.000000	93.569978 
2866.000000	93.588163 
2865.000000	93.597824 
2864.000000	93.598400 
2863.000000	93.592674 
2862.000000	93.583518 
2861.000000	93.571886 
2860.000000	93.558360 
2859.000000	93.545169 
2858.000000	93.536017 
2857.000000	93.534837 
2856.000000	93.545087 
2855.000000	93.568588 
2854.000000	93.604808 
2853.000000	93.652615 
2852.000000	93.712877 
2851.000000	93.787746 
2850.000000	93.876944 
2849.000000	93.976031 
2848.000000	94.079069 
2847.000000	94.181445 
2846.000000	94.280432 
2845.000000	94.374715 
2844.000000	94.464630 
2843.000000	94.551446 
2842.000000	94.635537 
2841.000000	94.715518 
2840.000000	94.789332 
2839.000000	94.855422 
2838.000000	94.912850 
2837.000000	94.961786 
2836.000000	95.004167 
2835.000000	95.042588 
2834.000000	95.078049 
2833.000000	95.109517 
2832.000000	95.136156 
2831.000000	95.159054 
2830.000000	95.180648 
2829.000000	95.203253 
2828.000000	95.227936 
2827.000000	95.253892 
2826.000000	95.278896 
2825.000000	95.301126 
2824.000000	95.320581 
2823.000000	95.338125 
2822.000000	95.353907 
2821.000000	95.367743 
2820.000000	95.380308 
2819.000000	95.392495 
2818.000000	95.404147 
2817.000000	95.414907 
2816.000000	95.425876 
2815.000000	95.438795 
2814.000000	95.453793 
2813.000000	95.469306 
2812.000000	95.483817 
2811.000000	95.496464 
2810.000000	95.506462 
2809.000000	95.513921 
2808.000000	95.520990 
2807.000000	95.530309 
2806.000000	95.542226 
2805.000000	95.554767 
2804.000000	95.566271 
2803.000000	95.576661 
2802.000000	95.586435 
2801.000000	95.595976 
2800.000000	95.605677 
2799.000000	95.615354 
2798.000000	95.623802 
2797.000000	95.630266 
2796.000000	95.635783 
2795.000000	95.641736 
2794.000000	95.647903 
2793.000000	95.653619 
2792.000000	95.659892 
2791.000000	95.668099 
2790.000000	95.677151 
2789.000000	95.684370 
2788.000000	95.689102 
2787.000000	95.693231 
2786.000000	95.698256 
2785.000000	95.703997 
2784.000000	95.710133 
2783.000000	95.716700 
2782.000000	95.722872 
2781.000000	95.727490 
2780.000000	95.731128 
2779.000000	95.735831 
2778.000000	95.742524 
2777.000000	95.750315 
2776.000000	95.758320 
2775.000000	95.766335 
2774.000000	95.773639 
2773.000000	95.779211 
2772.000000	95.783359 
2771.000000	95.787331 
2770.000000	95.791175 
2769.000000	95.793764 
2768.000000	95.795108 
2767.000000	95.796802 
2766.000000	95.799964 
2765.000000	95.804433 
2764.000000	95.809968 
2763.000000	95.816400 
2762.000000	95.822552 
2761.000000	95.826936 
2760.000000	95.829924 
2759.000000	95.833483 
2758.000000	95.838434 
2757.000000	95.843600 
2756.000000	95.847680 
2755.000000	95.850365 
2754.000000	95.851613 
2753.000000	95.851698 
2752.000000	95.852054 
2751.000000	95.854215 
2750.000000	95.857667 
2749.000000	95.860383 
2748.000000	95.861508 
2747.000000	95.862062 
2746.000000	95.863134 
2745.000000	95.865169 
2744.000000	95.868818 
2743.000000	95.874462 
2742.000000	95.880742 
2741.000000	95.885401 
2740.000000	95.887829 
2739.000000	95.889310 
2738.000000	95.890856 
2737.000000	95.892519 
2736.000000	95.894585 
2735.000000	95.897520 
2734.000000	95.900715 
2733.000000	95.903084 
2732.000000	95.904831 
2731.000000	95.906980 
2730.000000	95.909528 
2729.000000	95.912004 
2728.000000	95.915296 
2727.000000	95.920567 
2726.000000	95.926701 
2725.000000	95.931293 
2724.000000	95.934181 
2723.000000	95.937489 
2722.000000	95.942059 
2721.000000	95.946273 
2720.000000	95.948892 
2719.000000	95.950688 
2718.000000	95.952734 
2717.000000	95.955177 
2716.000000	95.958106 
2715.000000	95.961663 
2714.000000	95.964973 
2713.000000	95.966976 
2712.000000	95.968608 
2711.000000	95.972068 
2710.000000	95.977556 
2709.000000	95.982807 
2708.000000	95.986342 
2707.000000	95.989025 
2706.000000	95.991994 
2705.000000	95.995026 
2704.000000	95.997670 
2703.000000	96.000178 
2702.000000	96.002696 
2701.000000	96.005132 
2700.000000	96.008086 
2699.000000	96.012244 
2698.000000	96.016699 
2697.000000	96.019788 
2696.000000	96.021873 
2695.000000	96.025318 
2694.000000	96.031183 
2693.000000	96.037715 
2692.000000	96.042662 
2691.000000	96.045465 
2690.000000	96.046825 
2689.000000	96.047673 
2688.000000	96.049018 
2687.000000	96.051465 
2686.000000	96.054661 
2685.000000	96.058274 
2684.000000	96.063096 
2683.000000	96.069603 
2682.000000	96.075987 
2681.000000	96.079582 
2680.000000	96.080013 
2679.000000	96.079037 
2678.000000	96.077748 
2677.000000	96.076237 
2676.000000	96.075482 
2675.000000	96.076859 
2674.000000	96.079533 
2673.000000	96.081081 
2672.000000	96.081082 
2671.000000	96.081720 
2670.000000	96.084208 
2669.000000	96.086925 
2668.000000	96.087900 
2667.000000	96.087084 
2666.000000	96.085337 
2665.000000	96.082862 
2664.000000	96.079413 
2663.000000	96.074736 
2662.000000	96.068402 
2661.000000	96.060464 
2660.000000	96.052235 
2659.000000	96.045019 
2658.000000	96.038387 
2657.000000	96.031439 
2656.000000	96.025323 
2655.000000	96.022286 
2654.000000	96.022319 
2653.000000	96.023051 
2652.000000	96.023038 
2651.000000	96.022978 
2650.000000	96.023504 
2649.000000	96.024130 
2648.000000	96.024557 
2647.000000	96.024863 
2646.000000	96.024135 
2645.000000	96.021139 
2644.000000	96.016564 
2643.000000	96.012524 
2642.000000	96.009777 
2641.000000	96.007610 
2640.000000	96.006284 
2639.000000	96.006767 
2638.000000	96.007990 
2637.000000	96.007167 
2636.000000	96.003551 
2635.000000	95.999366 
2634.000000	95.996626 
2633.000000	95.995438 
2632.000000	95.995669 
2631.000000	95.997587 
2630.000000	96.000251 
2629.000000	96.001790 
2628.000000	96.002011 
2627.000000	96.002623 
2626.000000	96.004555 
2625.000000	96.007286 
2624.000000	96.010823 
2623.000000	96.015801 
2622.000000	96.021408 
2621.000000	96.025825 
2620.000000	96.029020 
2619.000000	96.032640 
2618.000000	96.037113 
2617.000000	96.041307 
2616.000000	96.044844 
2615.000000	96.048048 
2614.000000	96.049877 
2613.000000	96.049210 
2612.000000	96.048076 
2611.000000	96.050306 
2610.000000	96.056445 
2609.000000	96.063003 
2608.000000	96.067053 
2607.000000	96.068707 
2606.000000	96.069137 
2605.000000	96.069279 
2604.000000	96.070581 
2603.000000	96.073977 
2602.000000	96.077892 
2601.000000	96.080118 
2600.000000	96.081261 
2599.000000	96.083285 
2598.000000	96.085246 
2597.000000	96.084327 
2596.000000	96.080783 
2595.000000	96.077910 
2594.000000	96.077118 
2593.000000	96.076881 
2592.000000	96.076493 
2591.000000	96.076913 
2590.000000	96.077763 
2589.000000	96.077401 
2588.000000	96.076136 
2587.000000	96.075521 
2586.000000	96.074740 
2585.000000	96.071754 
2584.000000	96.067906 
2583.000000	96.066831 
2582.000000	96.068748 
2581.000000	96.070419 
2580.000000	96.070891 
2579.000000	96.072463 
2578.000000	96.075479 
2577.000000	96.077056 
2576.000000	96.076179 
2575.000000	96.075666 
2574.000000	96.077880 
2573.000000	96.082226 
2572.000000	96.087354 
2571.000000	96.091916 
2570.000000	96.093000 
2569.000000	96.088511 
2568.000000	96.081842 
2567.000000	96.079616 
2566.000000	96.083662 
2565.000000	96.089388 
2564.000000	96.092518 
2563.000000	96.092984 
2562.000000	96.091640 
2561.000000	96.087946 
2560.000000	96.082343 
2559.000000	96.076795 
2558.000000	96.071741 
2557.000000	96.066089 
2556.000000	96.060654 
2555.000000	96.057566 
2554.000000	96.055977 
2553.000000	96.052736 
2552.000000	96.047706 
2551.000000	96.043961 
2550.000000	96.042287 
2549.000000	96.040211 
2548.000000	96.037182 
2547.000000	96.035871 
2546.000000	96.037244 
2545.000000	96.038721 
2544.000000	96.038235 
2543.000000	96.036011 
2542.000000	96.031878 
2541.000000	96.025314 
2540.000000	96.018761 
2539.000000	96.016136 
2538.000000	96.017127 
2537.000000	96.017247 
2536.000000	96.014182 
2535.000000	96.009765 
2534.000000	96.005378 
2533.000000	96.000378 
2532.000000	95.995615 
2531.000000	95.993312 
2530.000000	95.992434 
2529.000000	95.989107 
2528.000000	95.982773 
2527.000000	95.977126 
2526.000000	95.973890 
2525.000000	95.970685 
2524.000000	95.966240 
2523.000000	95.962782 
2522.000000	95.961906 
2521.000000	95.962820 
2520.000000	95.966060 
2519.000000	95.974114 
2518.000000	95.986523 
2517.000000	95.998770 
2516.000000	96.007928 
2515.000000	96.015692 
2514.000000	96.024662 
2513.000000	96.035567 
2512.000000	96.049031 
2511.000000	96.065679 
2510.000000	96.083183 
2509.000000	96.097322 
2508.000000	96.107326 
2507.000000	96.116465 
2506.000000	96.126844 
2505.000000	96.137875 
2504.000000	96.150059 
2503.000000	96.165039 
2502.000000	96.180776 
2501.000000	96.191993 
2500.000000	96.197426 
2499.000000	96.202169 
2498.000000	96.210805 
2497.000000	96.222318 
2496.000000	96.233360 
2495.000000	96.242649 
2494.000000	96.250351 
2493.000000	96.256852 
2492.000000	96.263863 
2491.000000	96.273532 
2490.000000	96.285155 
2489.000000	96.295577 
2488.000000	96.303284 
2487.000000	96.309012 
2486.000000	96.312590 
2485.000000	96.313250 
2484.000000	96.313146 
2483.000000	96.316171 
2482.000000	96.322786 
2481.000000	96.330024 
2480.000000	96.336705 
2479.000000	96.344254 
2478.000000	96.352224 
2477.000000	96.357826 
2476.000000	96.360582 
2475.000000	96.363022 
2474.000000	96.366134 
2473.000000	96.368396 
2472.000000	96.369733 
2471.000000	96.372057 
2470.000000	96.375500 
2469.000000	96.378345 
2468.000000	96.380782 
2467.000000	96.384367 
2466.000000	96.387963 
2465.000000	96.389022 
2464.000000	96.388719 
2463.000000	96.390556 
2462.000000	96.393779 
2461.000000	96.393786 
2460.000000	96.389741 
2459.000000	96.386235 
2458.000000	96.386330 
2457.000000	96.388248 
2456.000000	96.390101 
2455.000000	96.392685 
2454.000000	96.396147 
2453.000000	96.398820 
2452.000000	96.400808 
2451.000000	96.404234 
2450.000000	96.408691 
2449.000000	96.411022 
2448.000000	96.410853 
2447.000000	96.411900 
2446.000000	96.416497 
2445.000000	96.422934 
2444.000000	96.428934 
2443.000000	96.433563 
2442.000000	96.435465 
2441.000000	96.434029 
2440.000000	96.432752 
2439.000000	96.436412 
2438.000000	96.444131 
2437.000000	96.450034 
2436.000000	96.451377 
2435.000000	96.451134 
2434.000000	96.452035 
2433.000000	96.453492 
2432.000000	96.455318 
2431.000000	96.459049 
2430.000000	96.464106 
2429.000000	96.467586 
2428.000000	96.469342 
2427.000000	96.472767 
2426.000000	96.479292 
2425.000000	96.486430 
2424.000000	96.492151 
2423.000000	96.496740 
2422.000000	96.499751 
2421.000000	96.500013 
2420.000000	96.499547 
2419.000000	96.502377 
2418.000000	96.508209 
2417.000000	96.512055 
2416.000000	96.511445 
2415.000000	96.509623 
2414.000000	96.510456 
2413.000000	96.514323 
2412.000000	96.519929 
2411.000000	96.526182 
2410.000000	96.531550 
2409.000000	96.535517 
2408.000000	96.541029 
2407.000000	96.551268 
2406.000000	96.563724 
2405.000000	96.572062 
2404.000000	96.574199 
2403.000000	96.573952 
2402.000000	96.574654 
2401.000000	96.576006 
2400.000000	96.577264 
2399.000000	96.578394 
2398.000000	96.577658 
2397.000000	96.573167 
2396.000000	96.567627 
2395.000000	96.566553 
2394.000000	96.570760 
2393.000000	96.575320 
2392.000000	96.576727 
2391.000000	96.576023 
2390.000000	96.573719 
2389.000000	96.566577 
2388.000000	96.551161 
2387.000000	96.526929 
2386.000000	96.495116 
2385.000000	96.459254 
2384.000000	96.428443 
2383.000000	96.415910 
2382.000000	96.431778 
2381.000000	96.478715 
2380.000000	96.553290 
2379.000000	96.645849 
2378.000000	96.737996 
2377.000000	96.806999 
2376.000000	96.837448 
2375.000000	96.826688 
2374.000000	96.779742 
2373.000000	96.707923 
2372.000000	96.632466 
2371.000000	96.577494 
2370.000000	96.551975 
2369.000000	96.545990 
2368.000000	96.546093 
2367.000000	96.545849 
2366.000000	96.542821 
2365.000000	96.538733 
2364.000000	96.540417 
2363.000000	96.548384 
2362.000000	96.545815 
2361.000000	96.516957 
2360.000000	96.473192 
2359.000000	96.434375 
2358.000000	96.409196 
2357.000000	96.406399 
2356.000000	96.436569 
2355.000000	96.493118 
2354.000000	96.554325 
2353.000000	96.600006 
2352.000000	96.606778 
2351.000000	96.555894 
2350.000000	96.470186 
2349.000000	96.408996 
2348.000000	96.416021 
2347.000000	96.474488 
2346.000000	96.513656 
2345.000000	96.481933 
2344.000000	96.401696 
2343.000000	96.338571 
2342.000000	96.336995 
2341.000000	96.395355 
2340.000000	96.475691 
2339.000000	96.534104 
2338.000000	96.557561 
2337.000000	96.563611 
2336.000000	96.572812 
2335.000000	96.586242 
2334.000000	96.597364 
2333.000000	96.604683 
2332.000000	96.608328 
2331.000000	96.599113 
2330.000000	96.566454 
2329.000000	96.504511 
2328.000000	96.421638 
2327.000000	96.333675 
2326.000000	96.254933 
2325.000000	96.198281 
2324.000000	96.172541 
2323.000000	96.183358 
2322.000000	96.220871 
2321.000000	96.263169 
2320.000000	96.291845 
2319.000000	96.304065 
2318.000000	96.308271 
2317.000000	96.313461 
2316.000000	96.326396 
2315.000000	96.343506 
2314.000000	96.352768 
2313.000000	96.342970 
2312.000000	96.319351 
2311.000000	96.296030 
2310.000000	96.283164 
2309.000000	96.279500 
2308.000000	96.283561 
2307.000000	96.295179 
2306.000000	96.310565 
2305.000000	96.319762 
2304.000000	96.317251 
2303.000000	96.305888 
2302.000000	96.292643 
2301.000000	96.282147 
2300.000000	96.277633 
2299.000000	96.279344 
2298.000000	96.283140 
2297.000000	96.284949 
2296.000000	96.287767 
2295.000000	96.297652 
2294.000000	96.313756 
2293.000000	96.328636 
2292.000000	96.337512 
2291.000000	96.341304 
2290.000000	96.341182 
2289.000000	96.338043 
2288.000000	96.336852 
2287.000000	96.343690 
2286.000000	96.357318 
2285.000000	96.370969 
2284.000000	96.382632 
2283.000000	96.396349 
2282.000000	96.412942 
2281.000000	96.428177 
2280.000000	96.440689 
2279.000000	96.452940 
2278.000000	96.464029 
2277.000000	96.470541 
2276.000000	96.474901 
2275.000000	96.482883 
2274.000000	96.492674 
2273.000000	96.496718 
2272.000000	96.495029 
2271.000000	96.496375 
2270.000000	96.504434 
2269.000000	96.513809 
2268.000000	96.520880 
2267.000000	96.528544 
2266.000000	96.538049 
2265.000000	96.545949 
2264.000000	96.551181 
2263.000000	96.555761 
2262.000000	96.558052 
2261.000000	96.554852 
2260.000000	96.549659 
2259.000000	96.549044 
2258.000000	96.551442 
2257.000000	96.551114 
2256.000000	96.552193 
2255.000000	96.565193 
2254.000000	96.589286 
2253.000000	96.611031 
2252.000000	96.622434 
2251.000000	96.627146 
2250.000000	96.628280 
2249.000000	96.624105 
2248.000000	96.617847 
2247.000000	96.617490 
2246.000000	96.623193 
2245.000000	96.626490 
2244.000000	96.624289 
2243.000000	96.621704 
2242.000000	96.620319 
2241.000000	96.617028 
2240.000000	96.615187 
2239.000000	96.622445 
2238.000000	96.635792 
2237.000000	96.642844 
2236.000000	96.640373 
2235.000000	96.637798 
2234.000000	96.640440 
2233.000000	96.643705 
2232.000000	96.645592 
2231.000000	96.649709 
2230.000000	96.653380 
2229.000000	96.648550 
2228.000000	96.637654 
2227.000000	96.633296 
2226.000000	96.638732 
2225.000000	96.643641 
2224.000000	96.642601 
2223.000000	96.642363 
2222.000000	96.647116 
2221.000000	96.651455 
2220.000000	96.652477 
2219.000000	96.654933 
2218.000000	96.660506 
2217.000000	96.665178 
2216.000000	96.669506 
2215.000000	96.677835 
2214.000000	96.686197 
2213.000000	96.685792 
2212.000000	96.679214 
2211.000000	96.677450 
2210.000000	96.680440 
2209.000000	96.677976 
2208.000000	96.670540 
2207.000000	96.670656 
2206.000000	96.680792 
2205.000000	96.688198 
2204.000000	96.685201 
2203.000000	96.677319 
2202.000000	96.668736 
2201.000000	96.657834 
2200.000000	96.649832 
2199.000000	96.655178 
2198.000000	96.671352 
2197.000000	96.683354 
2196.000000	96.685659 
2195.000000	96.686594 
2194.000000	96.688741 
2193.000000	96.684243 
2192.000000	96.672434 
2191.000000	96.663034 
2190.000000	96.658566 
2189.000000	96.652304 
2188.000000	96.646006 
2187.000000	96.649587 
2186.000000	96.660580 
2185.000000	96.665325 
2184.000000	96.664975 
2183.000000	96.678143 
2182.000000	96.710525 
2181.000000	96.742518 
2180.000000	96.754972 
2179.000000	96.749396 
2178.000000	96.737503 
2177.000000	96.729321 
2176.000000	96.734180 
2175.000000	96.753779 
2174.000000	96.771511 
2173.000000	96.766725 
2172.000000	96.740646 
2171.000000	96.711326 
2170.000000	96.685374 
2169.000000	96.655389 
2168.000000	96.622556 
2167.000000	96.598648 
2166.000000	96.584335 
2165.000000	96.566887 
2164.000000	96.541273 
2163.000000	96.515159 
2162.000000	96.498586 
2161.000000	96.514264 
2160.000000	96.606946 
2159.000000	96.799507 
2158.000000	97.034541 
2157.000000	97.209472 
2156.000000	97.276437 
2155.000000	97.265172 
2154.000000	97.218716 
2153.000000	97.157349 
2152.000000	97.096046 
2151.000000	97.052149 
2150.000000	97.029175 
2149.000000	97.017919 
2148.000000	97.016965 
2147.000000	97.030716 
2146.000000	97.049606 
2145.000000	97.056707 
2144.000000	97.053360 
2143.000000	97.054255 
2142.000000	97.059573 
2141.000000	97.055937 
2140.000000	97.043214 
2139.000000	97.035703 
2138.000000	97.038092 
2137.000000	97.044434 
2136.000000	97.059226 
2135.000000	97.093598 
2134.000000	97.138347 
2133.000000	97.166078 
2132.000000	97.164202 
2131.000000	97.145283 
2130.000000	97.122646 
2129.000000	97.097111 
2128.000000	97.068897 
2127.000000	97.043503 
2126.000000	97.021925 
2125.000000	97.000090 
2124.000000	96.980003 
2123.000000	96.967707 
2122.000000	96.960164 
2121.000000	96.948525 
2120.000000	96.934074 
2119.000000	96.925789 
2118.000000	96.922250 
2117.000000	96.912150 
2116.000000	96.893534 
2115.000000	96.877087 
2114.000000	96.868711 
2113.000000	96.864452 
2112.000000	96.863305 
2111.000000	96.869112 
2110.000000	96.877819 
2109.000000	96.879199 
2108.000000	96.873579 
2107.000000	96.871545 
2106.000000	96.875123 
2105.000000	96.875346 
2104.000000	96.869900 
2103.000000	96.866780 
2102.000000	96.868398 
2101.000000	96.868960 
2100.000000	96.869078 
2099.000000	96.876816 
2098.000000	96.892397 
2097.000000	96.908662 
2096.000000	96.926823 
2095.000000	96.952869 
2094.000000	96.978156 
2093.000000	96.984612 
2092.000000	96.971531 
2091.000000	96.957352 
2090.000000	96.951775 
2089.000000	96.945925 
2088.000000	96.932925 
2087.000000	96.919128 
2086.000000	96.909325 
2085.000000	96.899071 
2084.000000	96.887106 
2083.000000	96.879435 
2082.000000	96.876377 
2081.000000	96.871379 
2080.000000	96.866225 
2079.000000	96.871052 
2078.000000	96.885298 
2077.000000	96.895444 
2076.000000	96.895714 
2075.000000	96.893844 
2074.000000	96.894331 
2073.000000	96.893445 
2072.000000	96.893527 
2071.000000	96.902890 
2070.000000	96.918351 
2069.000000	96.927710 
2068.000000	96.931508 
2067.000000	96.941608 
2066.000000	96.956378 
2065.000000	96.960133 
2064.000000	96.951162 
2063.000000	96.945324 
2062.000000	96.948059 
2061.000000	96.948457 
2060.000000	96.943876 
2059.000000	96.944517 
2058.000000	96.949261 
2057.000000	96.944548 
2056.000000	96.932619 
2055.000000	96.931772 
2054.000000	96.939683 
2053.000000	96.926869 
2052.000000	96.881294 
2051.000000	96.833600 
2050.000000	96.820989 
2049.000000	96.846542 
2048.000000	96.887741 
2047.000000	96.926351 
2046.000000	96.953153 
2045.000000	96.962451 
2044.000000	96.960716 
2043.000000	96.963765 
2042.000000	96.973495 
2041.000000	96.975307 
2040.000000	96.965821 
2039.000000	96.959885 
2038.000000	96.963811 
2037.000000	96.968847 
2036.000000	96.976864 
2035.000000	97.002955 
2034.000000	97.042699 
2033.000000	97.068531 
2032.000000	97.070532 
2031.000000	97.068789 
2030.000000	97.076312 
2029.000000	97.082726 
2028.000000	97.084457 
2027.000000	97.095985 
2026.000000	97.119990 
2025.000000	97.137806 
2024.000000	97.140866 
2023.000000	97.142929 
2022.000000	97.151353 
2021.000000	97.157272 
2020.000000	97.160278 
2019.000000	97.171157 
2018.000000	97.183569 
2017.000000	97.176003 
2016.000000	97.149903 
2015.000000	97.131688 
2014.000000	97.130723 
2013.000000	97.129726 
2012.000000	97.120146 
2011.000000	97.114476 
2010.000000	97.119529 
2009.000000	97.129765 
2008.000000	97.150936 
2007.000000	97.194682 
2006.000000	97.245149 
2005.000000	97.267132 
2004.000000	97.253821 
2003.000000	97.231943 
2002.000000	97.216035 
2001.000000	97.196050 
2000.000000	97.169164 
1999.000000	97.150064 
1998.000000	97.142620 
1997.000000	97.131704 
1996.000000	97.113974 
1995.000000	97.106721 
1994.000000	97.116818 
1993.000000	97.126491 
1992.000000	97.121988 
1991.000000	97.111937 
1990.000000	97.103397 
1989.000000	97.088921 
1988.000000	97.068090 
1987.000000	97.053189 
1986.000000	97.046195 
1985.000000	97.034900 
1984.000000	97.016678 
1983.000000	97.000694 
1982.000000	96.982955 
1981.000000	96.951637 
1980.000000	96.921537 
1979.000000	96.932368 
1978.000000	96.998172 
1977.000000	97.084788 
1976.000000	97.155611 
1975.000000	97.207505 
1974.000000	97.246461 
1973.000000	97.266042 
1972.000000	97.268136 
1971.000000	97.271975 
1970.000000	97.286886 
1969.000000	97.300033 
1968.000000	97.299822 
1967.000000	97.289479 
1966.000000	97.272089 
1965.000000	97.247533 
1964.000000	97.229387 
1963.000000	97.237300 
1962.000000	97.267926 
1961.000000	97.296455 
1960.000000	97.309966 
1959.000000	97.315948 
1958.000000	97.316930 
1957.000000	97.305109 
1956.000000	97.283604 
1955.000000	97.266216 
1954.000000	97.255460 
1953.000000	97.242056 
1952.000000	97.228096 
1951.000000	97.225547 
1950.000000	97.231840 
1949.000000	97.232410 
1948.000000	97.224559 
1947.000000	97.219150 
1946.000000	97.221347 
1945.000000	97.229741 
1944.000000	97.248875 
1943.000000	97.278377 
1942.000000	97.297212 
1941.000000	97.287102 
1940.000000	97.263200 
1939.000000	97.255022 
1938.000000	97.266550 
1937.000000	97.276885 
1936.000000	97.276690 
1935.000000	97.277608 
1934.000000	97.284911 
1933.000000	97.288039 
1932.000000	97.285027 
1931.000000	97.286913 
1930.000000	97.294870 
1929.000000	97.300341 
1928.000000	97.302703 
1927.000000	97.312698 
1926.000000	97.331073 
1925.000000	97.348444 
1924.000000	97.362088 
1923.000000	97.369566 
1922.000000	97.360772 
1921.000000	97.334285 
1920.000000	97.314149 
1919.000000	97.324641 
1918.000000	97.349426 
1917.000000	97.351183 
1916.000000	97.328609 
1915.000000	97.310784 
1914.000000	97.311149 
1913.000000	97.317134 
1912.000000	97.320835 
1911.000000	97.329351 
1910.000000	97.340462 
1909.000000	97.339980 
1908.000000	97.327684 
1907.000000	97.322063 
1906.000000	97.327171 
1905.000000	97.329006 
1904.000000	97.325682 
1903.000000	97.328105 
1902.000000	97.336414 
1901.000000	97.338529 
1900.000000	97.332949 
1899.000000	97.333130 
1898.000000	97.342280 
1897.000000	97.348560 
1896.000000	97.348323 
1895.000000	97.348592 
1894.000000	97.348642 
1893.000000	97.342220 
1892.000000	97.338629 
1891.000000	97.353083 
1890.000000	97.373965 
1889.000000	97.371997 
1888.000000	97.348362 
1887.000000	97.331168 
1886.000000	97.331407 
1885.000000	97.334550 
1884.000000	97.330314 
1883.000000	97.326907 
1882.000000	97.329961 
1881.000000	97.332190 
1880.000000	97.329347 
1879.000000	97.329114 
1878.000000	97.333884 
1877.000000	97.333973 
1876.000000	97.329205 
1875.000000	97.331725 
1874.000000	97.341618 
1873.000000	97.347243 
1872.000000	97.352315 
1871.000000	97.375776 
1870.000000	97.413708 
1869.000000	97.426451 
1868.000000	97.397447 
1867.000000	97.362037 
1866.000000	97.347146 
1865.000000	97.348129 
1864.000000	97.357849 
1863.000000	97.376373 
1862.000000	97.397659 
1861.000000	97.408585 
1860.000000	97.407372 
1859.000000	97.405589 
1858.000000	97.406839 
1857.000000	97.402504 
1856.000000	97.392988 
1855.000000	97.391137 
1854.000000	97.398287 
1853.000000	97.404221 
1852.000000	97.405362 
1851.000000	97.414900 
1850.000000	97.439528 
1849.000000	97.459012 
1848.000000	97.454434 
1847.000000	97.438096 
1846.000000	97.439256 
1845.000000	97.462421 
1844.000000	97.483275 
1843.000000	97.484350 
1842.000000	97.462629 
1841.000000	97.427161 
1840.000000	97.401183 
1839.000000	97.398183 
1838.000000	97.403938 
1837.000000	97.398144 
1836.000000	97.383488 
1835.000000	97.371773 
1834.000000	97.359879 
1833.000000	97.338303 
1832.000000	97.311486 
1831.000000	97.290693 
1830.000000	97.265530 
1829.000000	97.222848 
1828.000000	97.184583 
1827.000000	97.180203 
1826.000000	97.208207 
1825.000000	97.226440 
1824.000000	97.204001 
1823.000000	97.162372 
1822.000000	97.132662 
1821.000000	97.121255 
1820.000000	97.123909 
1819.000000	97.144976 
1818.000000	97.178516 
1817.000000	97.197836 
1816.000000	97.187697 
1815.000000	97.164226 
1814.000000	97.152256 
1813.000000	97.151975 
1812.000000	97.149707 
1811.000000	97.144909 
1810.000000	97.143532 
1809.000000	97.143509 
1808.000000	97.140429 
1807.000000	97.136989 
1806.000000	97.135822 
1805.000000	97.137236 
1804.000000	97.149437 
1803.000000	97.177284 
1802.000000	97.203008 
1801.000000	97.189045 
1800.000000	97.132278 
1799.000000	97.082612 
1798.000000	97.073889 
1797.000000	97.086806 
1796.000000	97.089303 
1795.000000	97.084995 
1794.000000	97.105889 
1793.000000	97.158164 
1792.000000	97.210206 
1791.000000	97.242939 
1790.000000	97.256440 
1789.000000	97.253884 
1788.000000	97.256104 
1787.000000	97.288685 
1786.000000	97.347635 
1785.000000	97.394998 
1784.000000	97.402088 
1783.000000	97.379321 
1782.000000	97.361637 
1781.000000	97.357753 
1780.000000	97.352037 
1779.000000	97.345086 
1778.000000	97.343863 
1777.000000	97.340803 
1776.000000	97.316776 
1775.000000	97.275792 
1774.000000	97.248782 
1773.000000	97.239702 
1772.000000	97.218226 
1771.000000	97.199697 
1770.000000	97.223781 
1769.000000	97.282050 
1768.000000	97.332398 
1767.000000	97.328783 
1766.000000	97.267146 
1765.000000	97.186907 
1764.000000	97.134148 
1763.000000	97.118538 
1762.000000	97.106892 
1761.000000	97.065628 
1760.000000	97.002022 
1759.000000	96.945393 
1758.000000	96.912707 
1757.000000	96.884346 
1756.000000	96.819559 
1755.000000	96.721118 
1754.000000	96.633316 
1753.000000	96.589717 
1752.000000	96.565549 
1751.000000	96.489236 
1750.000000	96.314696 
1749.000000	96.065279 
1748.000000	95.790288 
1747.000000	95.522982 
1746.000000	95.273393 
1745.000000	95.010995 
1744.000000	94.691640 
1743.000000	94.302912 
1742.000000	93.865108 
1741.000000	93.383624 
1740.000000	92.839296 
1739.000000	92.256088 
1738.000000	91.718815 
1737.000000	91.270627 
1736.000000	90.869576 
1735.000000	90.380815 
1734.000000	89.687040 
1733.000000	88.969195 
1732.000000	88.433811 
1731.000000	88.030666 
1730.000000	87.674051 
1729.000000	87.339485 
1728.000000	87.057079 
1727.000000	86.859695 
1726.000000	86.749342 
1725.000000	86.695751 
1724.000000	86.677583 
1723.000000	86.698420 
1722.000000	86.759833 
1721.000000	86.860426 
1720.000000	87.015747 
1719.000000	87.245406 
1718.000000	87.512601 
1717.000000	87.749321 
1716.000000	87.970221 
1715.000000	88.220945 
1714.000000	88.487405 
1713.000000	88.732884 
1712.000000	88.955406 
1711.000000	89.175698 
1710.000000	89.386653 
1709.000000	89.552493 
1708.000000	89.661068 
1707.000000	89.742966 
1706.000000	89.793588 
1705.000000	89.766499 
1704.000000	89.682542 
1703.000000	89.614087 
1702.000000	89.571545 
1701.000000	89.414188 
1700.000000	89.011940 
1699.000000	88.584963 
1698.000000	88.286996 
1697.000000	87.996652 
1696.000000	87.610521 
1695.000000	87.218129 
1694.000000	86.951885 
1693.000000	86.779682 
1692.000000	86.664054 
1691.000000	86.600598 
1690.000000	86.571868 
1689.000000	86.557971 
1688.000000	86.564166 
1687.000000	86.631672 
1686.000000	86.806810 
1685.000000	87.079274 
1684.000000	87.363178 
1683.000000	87.654849 
1682.000000	87.992098 
1681.000000	88.344732 
1680.000000	88.702277 
1679.000000	89.030483 
1678.000000	89.325705 
1677.000000	89.635566 
1676.000000	89.997679 
1675.000000	90.358693 
1674.000000	90.643136 
1673.000000	90.854029 
1672.000000	91.050453 
1671.000000	91.273039 
1670.000000	91.501434 
1669.000000	91.712771 
1668.000000	91.911389 
1667.000000	92.082454 
1666.000000	92.217260 
1665.000000	92.341460 
1664.000000	92.478443 
1663.000000	92.607957 
1662.000000	92.707929 
1661.000000	92.798424 
1660.000000	92.894484 
1659.000000	92.988541 
1658.000000	93.059902 
1657.000000	93.097119 
1656.000000	93.119465 
1655.000000	93.182469 
1654.000000	93.261781 
1653.000000	93.254170 
1652.000000	93.288093 
1651.000000	93.382133 
1650.000000	93.406349 
1649.000000	93.436361 
1648.000000	93.496667 
1647.000000	93.554823 
1646.000000	93.601920 
1645.000000	93.682831 
1644.000000	93.771964 
1643.000000	93.841004 
1642.000000	93.897111 
1641.000000	93.943665 
1640.000000	93.971063 
1639.000000	93.978271 
1638.000000	93.975759 
1637.000000	93.974705 
1636.000000	93.964164 
1635.000000	93.974372 
1634.000000	94.040786 
1633.000000	94.110793 
1632.000000	94.164291 
1631.000000	94.215547 
1630.000000	94.259000 
1629.000000	94.281032 
1628.000000	94.285148 
1627.000000	94.288131 
1626.000000	94.300174 
1625.000000	94.323048 
1624.000000	94.355265 
1623.000000	94.384592 
1622.000000	94.402703 
1621.000000	94.409788 
1620.000000	94.405580 
1619.000000	94.404327 
1618.000000	94.410421 
1617.000000	94.406867 
1616.000000	94.405047 
1615.000000	94.430212 
1614.000000	94.457236 
1613.000000	94.471474 
1612.000000	94.484950 
1611.000000	94.492264 
1610.000000	94.475770 
1609.000000	94.432391 
1608.000000	94.377982 
1607.000000	94.318858 
1606.000000	94.250928 
1605.000000	94.175973 
1604.000000	94.105506 
1603.000000	94.053504 
1602.000000	94.024649 
1601.000000	94.022957 
1600.000000	94.056357 
1599.000000	94.121119 
1598.000000	94.195490 
1597.000000	94.259121 
1596.000000	94.310604 
1595.000000	94.353635 
1594.000000	94.383343 
1593.000000	94.400275 
1592.000000	94.417866 
1591.000000	94.440627 
1590.000000	94.453262 
1589.000000	94.445566 
1588.000000	94.428807 
1587.000000	94.413130 
1586.000000	94.389857 
1585.000000	94.357587 
1584.000000	94.329502 
1583.000000	94.317526 
1582.000000	94.315160 
1581.000000	94.304489 
1580.000000	94.278794 
1579.000000	94.247808 
1578.000000	94.220568 
1577.000000	94.185078 
1576.000000	94.139793 
1575.000000	94.116357 
1574.000000	94.105170 
1573.000000	94.073461 
1572.000000	94.039452 
1571.000000	94.013893 
1570.000000	93.955781 
1569.000000	93.857209 
1568.000000	93.779285 
1567.000000	93.737654 
1566.000000	93.693908 
1565.000000	93.618063 
1564.000000	93.508140 
1563.000000	93.394595 
1562.000000	93.310593 
1561.000000	93.276605 
1560.000000	93.247812 
1559.000000	93.022762 
1558.000000	92.717200 
1557.000000	92.636170 
1556.000000	92.628255 
1555.000000	92.620038 
1554.000000	92.583477 
1553.000000	92.513925 
1552.000000	92.438852 
1551.000000	92.381313 
1550.000000	92.300046 
1549.000000	92.163081 
1548.000000	92.021422 
1547.000000	91.937997 
1546.000000	91.902947 
1545.000000	91.830972 
1544.000000	91.667678 
1543.000000	91.464544 
1542.000000	91.273486 
1541.000000	91.048229 
1540.000000	90.755383 
1539.000000	90.559685 
1538.000000	90.530040 
1537.000000	90.517920 
1536.000000	90.487206 
1535.000000	90.452481 
1534.000000	90.364177 
1533.000000	90.175838 
1532.000000	89.980148 
1531.000000	89.858459 
1530.000000	89.774706 
1529.000000	89.677648 
1528.000000	89.552104 
1527.000000	89.404064 
1526.000000	89.225310 
1525.000000	89.010529 
1524.000000	88.798905 
1523.000000	88.630999 
1522.000000	88.451629 
1521.000000	88.191321 
1520.000000	87.938193 
1519.000000	87.767716 
1518.000000	87.624311 
1517.000000	87.421752 
1516.000000	87.169552 
1515.000000	86.963265 
1514.000000	86.816068 
1513.000000	86.672896 
1512.000000	86.509833 
1511.000000	86.351251 
1510.000000	86.219065 
1509.000000	86.081553 
1508.000000	85.831319 
1507.000000	85.329358 
1506.000000	84.761859 
1505.000000	84.448799 
1504.000000	84.309169 
1503.000000	84.220567 
1502.000000	84.123051 
1501.000000	83.959634 
1500.000000	83.716786 
1499.000000	83.427379 
1498.000000	83.088263 
1497.000000	82.642406 
1496.000000	82.139030 
1495.000000	81.734887 
1494.000000	81.484560 
1493.000000	81.342263 
1492.000000	81.269640 
1491.000000	81.213353 
1490.000000	81.069528 
1489.000000	80.795330 
1488.000000	80.490185 
1487.000000	80.240223 
1486.000000	80.022848 
1485.000000	79.799864 
1484.000000	79.574007 
1483.000000	79.347742 
1482.000000	79.076546 
1481.000000	78.729651 
1480.000000	78.368047 
1479.000000	78.057581 
1478.000000	77.760472 
1477.000000	77.388889 
1476.000000	76.945197 
1475.000000	76.499173 
1474.000000	76.012669 
1473.000000	75.342547 
1472.000000	74.542877 
1471.000000	73.876857 
1470.000000	73.409225 
1469.000000	73.034395 
1468.000000	72.692700 
1467.000000	72.360186 
1466.000000	71.979892 
1465.000000	71.506266 
1464.000000	71.034792 
1463.000000	70.713831 
1462.000000	70.539752 
1461.000000	70.428492 
1460.000000	70.333609 
1459.000000	70.219530 
1458.000000	69.952836 
1457.000000	69.413005 
1456.000000	68.844396 
1455.000000	68.509325 
1454.000000	68.325502 
1453.000000	68.174481 
1452.000000	68.034284 
1451.000000	67.933943 
1450.000000	67.860246 
1449.000000	67.755356 
1448.000000	67.600698 
1447.000000	67.443194 
1446.000000	67.326009 
1445.000000	67.240875 
1444.000000	67.171461 
1443.000000	67.110887 
1442.000000	67.039163 
1441.000000	66.954612 
1440.000000	66.899726 
1439.000000	66.906409 
1438.000000	66.913253 
1437.000000	66.801830 
1436.000000	66.595273 
1435.000000	66.466043 
1434.000000	66.461844 
1433.000000	66.515619 
1432.000000	66.578550 
1431.000000	66.632173 
1430.000000	66.664479 
1429.000000	66.683995 
1428.000000	66.739203 
1427.000000	66.864915 
1426.000000	67.041958 
1425.000000	67.221419 
1424.000000	67.384850 
1423.000000	67.571358 
1422.000000	67.818160 
1421.000000	68.119892 
1420.000000	68.432538 
1419.000000	68.692339 
1418.000000	68.892613 
1417.000000	69.092825 
1416.000000	69.332183 
1415.000000	69.612385 
1414.000000	69.913182 
1413.000000	70.215384 
1412.000000	70.513690 
1411.000000	70.804591 
1410.000000	71.081759 
1409.000000	71.353697 
1408.000000	71.645457 
1407.000000	71.965288 
1406.000000	72.293636 
1405.000000	72.606736 
1404.000000	72.902523 
1403.000000	73.197181 
1402.000000	73.503630 
1401.000000	73.826932 
1400.000000	74.153514 
1399.000000	74.453848 
1398.000000	74.724582 
1397.000000	74.997236 
1396.000000	75.288946 
1395.000000	75.578230 
1394.000000	75.849096 
1393.000000	76.120230 
1392.000000	76.406951 
1391.000000	76.702546 
1390.000000	76.994892 
1389.000000	77.274723 
1388.000000	77.522235 
1387.000000	77.707883 
1386.000000	77.838229 
1385.000000	77.963653 
1384.000000	78.121503 
1383.000000	78.309736 
1382.000000	78.510469 
1381.000000	78.724389 
1380.000000	78.961235 
1379.000000	79.211755 
1378.000000	79.460570 
1377.000000	79.714912 
1376.000000	79.989626 
1375.000000	80.268980 
1374.000000	80.520306 
1373.000000	80.742366 
1372.000000	80.955916 
1371.000000	81.161505 
1370.000000	81.351175 
1369.000000	81.534615 
1368.000000	81.738034 
1367.000000	81.983885 
1366.000000	82.282618 
1365.000000	82.638423 
1364.000000	83.033442 
1363.000000	83.412190 
1362.000000	83.723446 
1361.000000	83.975919 
1360.000000	84.208053 
1359.000000	84.434690 
1358.000000	84.653155 
1357.000000	84.867412 
1356.000000	85.082325 
1355.000000	85.288144 
1354.000000	85.474091 
1353.000000	85.647015 
1352.000000	85.819172 
1351.000000	85.984257 
1350.000000	86.131064 
1349.000000	86.263819 
1348.000000	86.391705 
1347.000000	86.509758 
1346.000000	86.608202 
1345.000000	86.692442 
1344.000000	86.776657 
1343.000000	86.868102 
1342.000000	86.968345 
1341.000000	87.075411 
1340.000000	87.172358 
1339.000000	87.233862 
1338.000000	87.260757 
1337.000000	87.285696 
1336.000000	87.334460 
1335.000000	87.405252 
1334.000000	87.489407 
1333.000000	87.589804 
1332.000000	87.707431 
1331.000000	87.828149 
1330.000000	87.940109 
1329.000000	88.049520 
1328.000000	88.164712 
1327.000000	88.278680 
1326.000000	88.383463 
1325.000000	88.485446 
1324.000000	88.591839 
1323.000000	88.697090 
1322.000000	88.795679 
1321.000000	88.893717 
1320.000000	88.994085 
1319.000000	89.085343 
1318.000000	89.159992 
1317.000000	89.228828 
1316.000000	89.302071 
1315.000000	89.372902 
1314.000000	89.431501 
1313.000000	89.480123 
1312.000000	89.523444 
1311.000000	89.558121 
1310.000000	89.583912 
1309.000000	89.609889 
1308.000000	89.640014 
1307.000000	89.665720 
1306.000000	89.683043 
1305.000000	89.701759 
1304.000000	89.728272 
1303.000000	89.755023 
1302.000000	89.776459 
1301.000000	89.800513 
1300.000000	89.833743 
1299.000000	89.870080 
1298.000000	89.903360 
1297.000000	89.936950 
1296.000000	89.971592 
1295.000000	89.998587 
1294.000000	90.014219 
1293.000000	90.026157 
1292.000000	90.037410 
1291.000000	90.038699 
1290.000000	90.024333 
1289.000000	90.000363 
1288.000000	89.969410 
1287.000000	89.924058 
1286.000000	89.863932 
1285.000000	89.802523 
1284.000000	89.748213 
1283.000000	89.694203 
1282.000000	89.634778 
1281.000000	89.576414 
1280.000000	89.524032 
1279.000000	89.471430 
1278.000000	89.414841 
1277.000000	89.362457 
1276.000000	89.321189 
1275.000000	89.286860 
1274.000000	89.255527 
1273.000000	89.231185 
1272.000000	89.214034 
1271.000000	89.194290 
1270.000000	89.166773 
1269.000000	89.139054 
1268.000000	89.116511 
1267.000000	89.092816 
1266.000000	89.063241 
1265.000000	89.034321 
1264.000000	89.011972 
1263.000000	88.992485 
1262.000000	88.972909 
1261.000000	88.957920 
1260.000000	88.948285 
1259.000000	88.935079 
1258.000000	88.913496 
1257.000000	88.890143 
1256.000000	88.869016 
1255.000000	88.842795 
1254.000000	88.805306 
1253.000000	88.760708 
1252.000000	88.712994 
1251.000000	88.658660 
1250.000000	88.597323 
1249.000000	88.537741 
1248.000000	88.485698 
1247.000000	88.437002 
1246.000000	88.388817 
1245.000000	88.346359 
1244.000000	88.312229 
1243.000000	88.281180 
1242.000000	88.252020 
1241.000000	88.232570 
1240.000000	88.226004 
1239.000000	88.223982 
1238.000000	88.219991 
1237.000000	88.218169 
1236.000000	88.222322 
1235.000000	88.228020 
1234.000000	88.232391 
1233.000000	88.239945 
1232.000000	88.251462 
1231.000000	88.258624 
1230.000000	88.256890 
1229.000000	88.252510 
1228.000000	88.250117 
1227.000000	88.245007 
1226.000000	88.234277 
1225.000000	88.223941 
1224.000000	88.218133 
1223.000000	88.212552 
1222.000000	88.205101 
1221.000000	88.201695 
1220.000000	88.204925 
1219.000000	88.208086 
1218.000000	88.206570 
1217.000000	88.203921 
1216.000000	88.200438 
1215.000000	88.187425 
1214.000000	88.159260 
1213.000000	88.119953 
1212.000000	88.072142 
1211.000000	88.011578 
1210.000000	87.938197 
1209.000000	87.860335 
1208.000000	87.781748 
1207.000000	87.696111 
1206.000000	87.599636 
1205.000000	87.497618 
1204.000000	87.393138 
1203.000000	87.280951 
1202.000000	87.158081 
1201.000000	87.029364 
1200.000000	86.897411 
1199.000000	86.757998 
1198.000000	86.610125 
1197.000000	86.460295 
1196.000000	86.312347 
1195.000000	86.162943 
1194.000000	86.010950 
1193.000000	85.861584 
1192.000000	85.717566 
1191.000000	85.576039 
1190.000000	85.438022 
1189.000000	85.311486 
1188.000000	85.200963 
1187.000000	85.102783 
1186.000000	85.014189 
1185.000000	84.938468 
1184.000000	84.877110 
1183.000000	84.825541 
1182.000000	84.781635 
1181.000000	84.751419 
1180.000000	84.741146 
1179.000000	84.749918 
1178.000000	84.774674 
1177.000000	84.815250 
1176.000000	84.869551 
1175.000000	84.930782 
1174.000000	84.994555 
1173.000000	85.062415 
1172.000000	85.133960 
1171.000000	85.202831 
1170.000000	85.265424 
1169.000000	85.326162 
1168.000000	85.388759 
1167.000000	85.449740 
1166.000000	85.506034 
1165.000000	85.561222 
1164.000000	85.618057 
1163.000000	85.672069 
1162.000000	85.718679 
1161.000000	85.759603 
1160.000000	85.796343 
1159.000000	85.824720 
1158.000000	85.841908 
1157.000000	85.852267 
1156.000000	85.861105 
1155.000000	85.869394 
1154.000000	85.878570 
1153.000000	85.892133 
1152.000000	85.907198 
1151.000000	85.912019 
1150.000000	85.897373 
1149.000000	85.863620 
1148.000000	85.812741 
1147.000000	85.742282 
1146.000000	85.651925 
1145.000000	85.547426 
1144.000000	85.432824 
1143.000000	85.306013 
1142.000000	85.165871 
1141.000000	85.016716 
1140.000000	84.862455 
1139.000000	84.703317 
1138.000000	84.540831 
1137.000000	84.378920 
1136.000000	84.218045 
1135.000000	84.055175 
1134.000000	83.891539 
1133.000000	83.734008 
1132.000000	83.587539 
1131.000000	83.452672 
1130.000000	83.331505 
1129.000000	83.229276 
1128.000000	83.148101 
1127.000000	83.085291 
1126.000000	83.040016 
1125.000000	83.015636 
1124.000000	83.012637 
1123.000000	83.025030 
1122.000000	83.047659 
1121.000000	83.082297 
1120.000000	83.132613 
1119.000000	83.197531 
1118.000000	83.273365 
1117.000000	83.357939 
1116.000000	83.448262 
1115.000000	83.538247 
1114.000000	83.623127 
1113.000000	83.702339 
1112.000000	83.774369 
1111.000000	83.833403 
1110.000000	83.874826 
1109.000000	83.898727 
1108.000000	83.904470 
1107.000000	83.888206 
1106.000000	83.849018 
1105.000000	83.790341 
1104.000000	83.711365 
1103.000000	83.603897 
1102.000000	83.461777 
1101.000000	83.287652 
1100.000000	83.086541 
1099.000000	82.861388 
1098.000000	82.614910 
1097.000000	82.351729 
1096.000000	82.074919 
1095.000000	81.785575 
1094.000000	81.487872 
1093.000000	81.190577 
1092.000000	80.902221 
1091.000000	80.627683 
1090.000000	80.369911 
1089.000000	80.132569 
1088.000000	79.919790 
1087.000000	79.733434 
1086.000000	79.570715 
1085.000000	79.425406 
1084.000000	79.291936 
1083.000000	79.167319 
1082.000000	79.048881 
1081.000000	78.932114 
1080.000000	78.812474 
1079.000000	78.688819 
1078.000000	78.564557 
1077.000000	78.446660 
1076.000000	78.344307 
1075.000000	78.266474 
1074.000000	78.218511 
1073.000000	78.200910 
1072.000000	78.210594 
1071.000000	78.241468 
1070.000000	78.285250 
1069.000000	78.335068 
1068.000000	78.387330 
1067.000000	78.438099 
1066.000000	78.480303 
1065.000000	78.507491 
1064.000000	78.517804 
1063.000000	78.511409 
1062.000000	78.486929 
1061.000000	78.443511 
1060.000000	78.383213 
1059.000000	78.306093 
1058.000000	78.203790 
1057.000000	78.062953 
1056.000000	77.875679 
1055.000000	77.643410 
1054.000000	77.371429 
1053.000000	77.064615 
1052.000000	76.729903 
1051.000000	76.376715 
1050.000000	76.010860 
1049.000000	75.634093 
1048.000000	75.253728 
1047.000000	74.884339 
1046.000000	74.534939 
1045.000000	74.202851 
1044.000000	73.884142 
1043.000000	73.580039 
1042.000000	73.288384 
1041.000000	72.998871 
1040.000000	72.702524 
1039.000000	72.396732 
1038.000000	72.076378 
1037.000000	71.730742 
1036.000000	71.354921 
1035.000000	70.954077 
1034.000000	70.531343 
1033.000000	70.083470 
1032.000000	69.614888 
1031.000000	69.142556 
1030.000000	68.677552 
1029.000000	68.214560 
1028.000000	67.748232 
1027.000000	67.285401 
1026.000000	66.832139 
1025.000000	66.385155 
1024.000000	65.947291 
1023.000000	65.536523 
1022.000000	65.169193 
1021.000000	64.849108 
1020.000000	64.582052 
1019.000000	64.383338 
1018.000000	64.260346 
1017.000000	64.204868 
1016.000000	64.211563 
1015.000000	64.285666 
1014.000000	64.425175 
1013.000000	64.615392 
1012.000000	64.847967 
1011.000000	65.125180 
1010.000000	65.438831 
1009.000000	65.764388 
1008.000000	66.082921 
1007.000000	66.391617 
1006.000000	66.687626 
1005.000000	66.959081 
1004.000000	67.198877 
1003.000000	67.411965 
1002.000000	67.602549 
1001.000000	67.767414 
1000.000000	67.907076 
999.000000	 68.030384 
998.000000	 68.142854 
997.000000	 68.242236 
996.000000	 68.330133 
995.000000	 68.416906 
994.000000	 68.511401 
993.000000	 68.616410 
992.000000	 68.736420 
991.000000	 68.877275 
990.000000	 69.034472 
989.000000	 69.193026 
988.000000	 69.341464 
987.000000	 69.476945 
986.000000	 69.600067 
985.000000	 69.719302 
984.000000	 69.859120 
983.000000	 70.046008 
982.000000	 70.281446 
981.000000	 70.540731 
980.000000	 70.799439 
979.000000	 71.047595 
978.000000	 71.278883 
977.000000	 71.483668 
976.000000	 71.657804 
975.000000	 71.805514 
974.000000	 71.929009 
973.000000	 72.025566 
972.000000	 72.097584 
971.000000	 72.154944 
970.000000	 72.204374 
969.000000	 72.246225 
968.000000	 72.284201 
967.000000	 72.328158 
966.000000	 72.384630 
965.000000	 72.454530 
964.000000	 72.542263 
963.000000	 72.655998 
962.000000	 72.796227 
961.000000	 72.955245 
960.000000	 73.130570 
959.000000	 73.327899 
958.000000	 73.548747 
957.000000	 73.786587 
956.000000	 74.037980 
955.000000	 74.306771 
954.000000	 74.594414 
953.000000	 74.896031 
952.000000	 75.208617 
951.000000	 75.534033 
950.000000	 75.871806 
949.000000	 76.218187 
948.000000	 76.574909 
947.000000	 76.950776 
946.000000	 77.351621 
945.000000	 77.774347 
944.000000	 78.211783 
943.000000	 78.657503 
942.000000	 79.105285 
941.000000	 79.549100 
940.000000	 79.984933 
939.000000	 80.410552 
938.000000	 80.824906 
937.000000	 81.229999 
936.000000	 81.630945 
935.000000	 82.031280 
934.000000	 82.429474 
933.000000	 82.821442 
932.000000	 83.204223 
931.000000	 83.575952 
930.000000	 83.934399 
929.000000	 84.276657 
928.000000	 84.599566 
927.000000	 84.901856 
926.000000	 85.187293 
925.000000	 85.462744 
924.000000	 85.730423 
923.000000	 85.984947 
922.000000	 86.220660 
921.000000	 86.438314 
920.000000	 86.641713 
919.000000	 86.832396 
918.000000	 87.011207 
917.000000	 87.180446 
916.000000	 87.340361 
915.000000	 87.487670 
914.000000	 87.621340 
913.000000	 87.745768 
912.000000	 87.865165 
911.000000	 87.979524 
910.000000	 88.089030 
909.000000	 88.197061 
908.000000	 88.305656 
907.000000	 88.413660 
906.000000	 88.522593 
905.000000	 88.638694 
904.000000	 88.765738 
903.000000	 88.900397 
902.000000	 89.035936 
901.000000	 89.164277 
900.000000	 89.273508 
899.000000	 89.352263 
898.000000	 89.398269 
897.000000	 89.414148 
896.000000	 89.391531 
895.000000	 89.308445 
894.000000	 89.143215 
893.000000	 88.879148 
892.000000	 88.493450 
891.000000	 87.954413 
890.000000	 87.232029 
889.000000	 86.299359 
888.000000	 85.126945 
887.000000	 83.701030 
886.000000	 82.062281 
885.000000	 80.320663 
884.000000	 78.626133 
883.000000	 77.115072 
882.000000	 75.861409 
881.000000	 74.869205 
880.000000	 74.118754 
879.000000	 73.615049 
878.000000	 73.389221 
877.000000	 73.475423 
876.000000	 73.903819 
875.000000	 74.697196 
874.000000	 75.848978 
873.000000	 77.302550 
872.000000	 78.949924 
871.000000	 80.644072 
870.000000	 82.231098 
869.000000	 83.599190 
868.000000	 84.706721 
867.000000	 85.571161 
866.000000	 86.241227 
865.000000	 86.770210 
864.000000	 87.197100 
863.000000	 87.544549 
862.000000	 87.829530 
861.000000	 88.067889 
860.000000	 88.269614 
859.000000	 88.439608 
858.000000	 88.580967 
857.000000	 88.684895 
856.000000	 88.723940 
855.000000	 88.682398 
854.000000	 88.600547 
853.000000	 88.560956 
852.000000	 88.612635 
851.000000	 88.724925 
850.000000	 88.830859 
849.000000	 88.900866 
848.000000	 88.954563 
847.000000	 89.014894 
846.000000	 89.079440 
845.000000	 89.135861 
844.000000	 89.181714 
843.000000	 89.221485 
842.000000	 89.257562 
841.000000	 89.290335 
840.000000	 89.319729 
839.000000	 89.343265 
838.000000	 89.357357 
837.000000	 89.361228 
836.000000	 89.356206 
835.000000	 89.343223 
834.000000	 89.324774 
833.000000	 89.305804 
832.000000	 89.287958 
831.000000	 89.266413 
830.000000	 89.237004 
829.000000	 89.202483 
828.000000	 89.166513 
827.000000	 89.125986 
826.000000	 89.076220 
825.000000	 89.020047 
824.000000	 88.964227 
823.000000	 88.909837 
822.000000	 88.853204 
821.000000	 88.793548 
820.000000	 88.733649 
819.000000	 88.675595 
818.000000	 88.620001 
817.000000	 88.566695 
816.000000	 88.512954 
815.000000	 88.453479 
814.000000	 88.384905 
813.000000	 88.308037 
812.000000	 88.223906 
811.000000	 88.131165 
810.000000	 88.029800 
809.000000	 87.923900 
808.000000	 87.817616 
807.000000	 87.710603 
806.000000	 87.599725 
805.000000	 87.483322 
804.000000	 87.361814 
803.000000	 87.235993 
802.000000	 87.106649 
801.000000	 86.974710 
800.000000	 86.840669 
799.000000	 86.704988 
798.000000	 86.569355 
797.000000	 86.435847 
796.000000	 86.304015 
795.000000	 86.170043 
794.000000	 86.029558 
793.000000	 85.880266 
792.000000	 85.721125 
791.000000	 85.550310 
790.000000	 85.365622 
789.000000	 85.166605 
788.000000	 84.954727 
787.000000	 84.730638 
786.000000	 84.492035 
785.000000	 84.235766 
784.000000	 83.961802 
783.000000	 83.672751 
782.000000	 83.368587 
781.000000	 83.044643 
780.000000	 82.697393 
779.000000	 82.331132 
778.000000	 81.957747 
777.000000	 81.591384 
776.000000	 81.242770 
775.000000	 80.913404 
774.000000	 80.593073 
773.000000	 80.267676 
772.000000	 79.930455 
771.000000	 79.580554 
770.000000	 79.212928 
769.000000	 78.821082 
768.000000	 78.412560 
767.000000	 78.011259 
766.000000	 77.640124 
765.000000	 77.310542 
764.000000	 77.029779 
763.000000	 76.803120 
762.000000	 76.622714 
761.000000	 76.469399 
760.000000	 76.333218 
759.000000	 76.219444 
758.000000	 76.129330 
757.000000	 76.049970 
756.000000	 75.969656 
755.000000	 75.888353 
754.000000	 75.806203 
753.000000	 75.716292 
752.000000	 75.616060 
751.000000	 75.511404 
750.000000	 75.402465 
749.000000	 75.280078 
748.000000	 75.142520 
747.000000	 75.000236 
746.000000	 74.857507 
745.000000	 74.705456 
744.000000	 74.540248 
743.000000	 74.371399 
742.000000	 74.204356 
741.000000	 74.032063 
740.000000	 73.851972 
739.000000	 73.672788 
738.000000	 73.494460 
737.000000	 73.299128 
736.000000	 73.069188 
735.000000	 72.793742 
734.000000	 72.449282 
733.000000	 72.000678 
732.000000	 71.444273 
731.000000	 70.840392 
730.000000	 70.289419 
729.000000	 69.879782 
728.000000	 69.657633 
727.000000	 69.616355 
726.000000	 69.694302 
725.000000	 69.806231 
724.000000	 69.896896 
723.000000	 69.955272 
722.000000	 69.980299 
721.000000	 69.962536 
720.000000	 69.905801 
719.000000	 69.830032 
718.000000	 69.735292 
717.000000	 69.595578 
716.000000	 69.398414 
715.000000	 69.164254 
714.000000	 68.919535 
713.000000	 68.676697 
712.000000	 68.452349 
711.000000	 68.267573 
710.000000	 68.108500 
709.000000	 67.918740 
708.000000	 67.652015 
707.000000	 67.306019 
706.000000	 66.888864 
705.000000	 66.392979 
704.000000	 65.828221 
703.000000	 65.242921 
702.000000	 64.690387 
701.000000	 64.209955 
700.000000	 63.855549 
699.000000	 63.694600 
698.000000	 63.738807 
697.000000	 63.915001 
696.000000	 64.135490 
695.000000	 64.353862 
694.000000	 64.539257 
693.000000	 64.652282 
692.000000	 64.681043 
691.000000	 64.662938 
690.000000	 64.628882 
689.000000	 64.564143 
688.000000	 64.457313 
687.000000	 64.336863 
686.000000	 64.222478 
685.000000	 64.092082 
684.000000	 63.933636 
683.000000	 63.775923 
682.000000	 63.632918 
681.000000	 63.474812 
680.000000	 63.287416 
679.000000	 63.102563 
678.000000	 62.933613 
677.000000	 62.736234 
676.000000	 62.484650 
675.000000	 62.204785 
674.000000	 61.907604 
673.000000	 61.581930 
672.000000	 61.283682 
671.000000	 61.127534 
670.000000	 61.146613 
669.000000	 61.174669 
668.000000	 60.937923 
667.000000	 60.463354 
666.000000	 60.074898 
665.000000	 59.908081 
664.000000	 59.878787 
663.000000	 59.918814 
662.000000	 59.987498 
661.000000	 60.034030 
660.000000	 60.033411 
659.000000	 60.013914 
658.000000	 59.996633 
657.000000	 59.946911 
656.000000	 59.849654 
655.000000	 59.754229 
654.000000	 59.690804 
653.000000	 59.616102 
652.000000	 59.502761 
651.000000	 59.395392 
650.000000	 59.319391 
649.000000	 59.221195 
648.000000	 59.074313 
647.000000	 58.943735 
646.000000	 58.865198 
645.000000	 58.775318 
644.000000	 58.632723 
643.000000	 58.493228 
642.000000	 58.394248 
641.000000	 58.269560 
640.000000	 58.072584 
639.000000	 57.873233 
638.000000	 57.730722 
637.000000	 57.586978 
636.000000	 57.404050 
635.000000	 57.266901 
634.000000	 57.228897 
633.000000	 57.199092 
632.000000	 57.107818 
631.000000	 57.025469 
630.000000	 57.011379 
629.000000	 56.995743 
628.000000	 56.927911 
627.000000	 56.887557 
626.000000	 56.922733 
625.000000	 56.932439 
624.000000	 56.858101 
623.000000	 56.815333 
622.000000	 56.873178 
621.000000	 56.894597 
620.000000	 56.778753 
619.000000	 56.635501 
618.000000	 56.545769 
617.000000	 56.386108 
616.000000	 56.115017 
615.000000	 55.924327 
614.000000	 55.887805 
613.000000	 55.801093 
612.000000	 55.557136 
611.000000	 55.343588 
610.000000	 55.297275 
609.000000	 55.281635 
608.000000	 55.216829 
607.000000	 55.266566 
606.000000	 55.496792 
605.000000	 55.696917 
604.000000	 55.743991 
603.000000	 55.792492 
602.000000	 55.951152 
601.000000	 56.097727 
600.000000	 56.174093 
599.000000	 56.334450 
598.000000	 56.635827 
597.000000	 56.886090 
596.000000	 56.974939 
595.000000	 57.053927 
594.000000	 57.223251 
593.000000	 57.325155 
592.000000	 57.272555 
591.000000	 57.272865 
590.000000	 57.477666 
589.000000	 57.722422 
588.000000	 57.877165 
587.000000	 58.071112 
586.000000	 58.352381 
585.000000	 58.485794 
584.000000	 58.365286 
583.000000	 58.261588 
582.000000	 58.365359 
581.000000	 58.440791 
580.000000	 58.338655 
579.000000	 58.365134 
578.000000	 58.692983 
577.000000	 58.932605 
576.000000	 58.828274 
575.000000	 58.761041 
574.000000	 59.065032 
573.000000	 59.416320 
572.000000	 59.494609 
571.000000	 59.475775 
570.000000	 59.493045 
569.000000	 59.252287 
568.000000	 58.685797 
567.000000	 58.328854 
566.000000	 58.505203 
565.000000	 58.756963 
564.000000	 58.746045 
563.000000	 58.784311 
562.000000	 59.072172 
561.000000	 59.220019 
560.000000	 59.035792 
559.000000	 58.951030 
558.000000	 59.193473 
557.000000	 59.272871 
556.000000	 58.914047 
555.000000	 58.609249 
554.000000	 58.745511 
553.000000	 58.883920 
552.000000	 58.657652 
551.000000	 58.458702 
550.000000	 58.625735 

