PE IR                   SPECTRUM    ASCII       PEDS        1.60        
  -1
FR220608.ASC
22/05/09
15:22:20.00
22/05/09
15:22:20.00
Administrator
Primer amarelo raspado na superficie da carenagem eixo de transmissao apos tinta verde por jateamento - IR/UATR 80 N - Vitor
550.000000
20









FRONTIER FT-IR/NIR,CPU32 MAIN 00.09.1072 09-JANUARY-2014 12:55:01
MIR TGS
MIR
OPTKBR
100262
0.200000

4.000000
FORTE
RAZ„O
ESPECTRO
MAGNITUDE
UNIVERSAL ATR
DUPLO

COMBINADO


0


#HDR
-1
-1
#GR
CM-1
%T
0.00002384185791015625
0.0
4000.000000
-1.000000
3451
8
98.035366
57.773592
#DATA
4000.000000	97.719704 
3999.000000	97.720057 
3998.000000	97.722192 
3997.000000	97.726572 
3996.000000	97.731767 
3995.000000	97.735723 
3994.000000	97.737096 
3993.000000	97.735960 
3992.000000	97.733549 
3991.000000	97.731114 
3990.000000	97.729332 
3989.000000	97.728346 
3988.000000	97.728056 
3987.000000	97.728681 
3986.000000	97.730609 
3985.000000	97.733926 
3984.000000	97.738050 
3983.000000	97.741805 
3982.000000	97.744292 
3981.000000	97.745424 
3980.000000	97.745910 
3979.000000	97.746527 
3978.000000	97.747396 
3977.000000	97.748043 
3976.000000	97.748102 
3975.000000	97.747876 
3974.000000	97.747827 
3973.000000	97.747698 
3972.000000	97.746630 
3971.000000	97.744300 
3970.000000	97.741774 
3969.000000	97.740968 
3968.000000	97.742802 
3967.000000	97.746354 
3966.000000	97.749742 
3965.000000	97.751539 
3964.000000	97.751442 
3963.000000	97.750059 
3962.000000	97.748225 
3961.000000	97.746544 
3960.000000	97.745554 
3959.000000	97.745467 
3958.000000	97.746272 
3957.000000	97.747767 
3956.000000	97.749041 
3955.000000	97.748794 
3954.000000	97.746378 
3953.000000	97.743240 
3952.000000	97.742733 
3951.000000	97.747324 
3950.000000	97.756079 
3949.000000	97.764501 
3948.000000	97.768203 
3947.000000	97.766756 
3946.000000	97.763010 
3945.000000	97.760020 
3944.000000	97.758458 
3943.000000	97.757540 
3942.000000	97.757132 
3941.000000	97.757795 
3940.000000	97.760097 
3939.000000	97.763301 
3938.000000	97.766250 
3937.000000	97.769211 
3936.000000	97.772926 
3935.000000	97.777522 
3934.000000	97.781523 
3933.000000	97.782620 
3932.000000	97.779835 
3931.000000	97.774333 
3930.000000	97.768996 
3929.000000	97.765549 
3928.000000	97.763630 
3927.000000	97.762060 
3926.000000	97.760164 
3925.000000	97.758048 
3924.000000	97.756317 
3923.000000	97.756156 
3922.000000	97.758428 
3921.000000	97.763896 
3920.000000	97.772516 
3919.000000	97.781930 
3918.000000	97.788400 
3917.000000	97.788735 
3916.000000	97.783472 
3915.000000	97.776633 
3914.000000	97.771043 
3913.000000	97.767811 
3912.000000	97.766822 
3911.000000	97.767732 
3910.000000	97.770334 
3909.000000	97.773922 
3908.000000	97.777063 
3907.000000	97.779532 
3906.000000	97.782661 
3905.000000	97.788664 
3904.000000	97.796828 
3903.000000	97.802069 
3902.000000	97.799620 
3901.000000	97.790100 
3900.000000	97.778934 
3899.000000	97.771922 
3898.000000	97.770867 
3897.000000	97.772853 
3896.000000	97.774758 
3895.000000	97.776226 
3894.000000	97.778092 
3893.000000	97.782017 
3892.000000	97.787048 
3891.000000	97.791040 
3890.000000	97.793503 
3889.000000	97.793645 
3888.000000	97.792734 
3887.000000	97.793116 
3886.000000	97.795189 
3885.000000	97.797508 
3884.000000	97.797812 
3883.000000	97.794720 
3882.000000	97.788926 
3881.000000	97.783180 
3880.000000	97.779938 
3879.000000	97.779662 
3878.000000	97.781742 
3877.000000	97.783263 
3876.000000	97.782993 
3875.000000	97.782797 
3874.000000	97.784246 
3873.000000	97.788770 
3872.000000	97.795899 
3871.000000	97.803196 
3870.000000	97.808326 
3869.000000	97.809693 
3868.000000	97.808017 
3867.000000	97.804064 
3866.000000	97.798621 
3865.000000	97.794937 
3864.000000	97.795514 
3863.000000	97.800764 
3862.000000	97.808780 
3861.000000	97.816179 
3860.000000	97.819840 
3859.000000	97.818801 
3858.000000	97.813349 
3857.000000	97.804974 
3856.000000	97.797067 
3855.000000	97.794461 
3854.000000	97.801576 
3853.000000	97.814997 
3852.000000	97.824262 
3851.000000	97.825863 
3850.000000	97.821711 
3849.000000	97.815558 
3848.000000	97.810080 
3847.000000	97.806660 
3846.000000	97.806022 
3845.000000	97.807925 
3844.000000	97.811878 
3843.000000	97.816555 
3842.000000	97.820390 
3841.000000	97.821628 
3840.000000	97.818255 
3839.000000	97.811287 
3838.000000	97.804282 
3837.000000	97.800811 
3836.000000	97.801955 
3835.000000	97.805461 
3834.000000	97.808842 
3833.000000	97.810660 
3832.000000	97.810136 
3831.000000	97.808550 
3830.000000	97.807765 
3829.000000	97.808453 
3828.000000	97.810291 
3827.000000	97.812581 
3826.000000	97.814886 
3825.000000	97.816999 
3824.000000	97.818310 
3823.000000	97.817336 
3822.000000	97.813820 
3821.000000	97.809640 
3820.000000	97.808247 
3819.000000	97.810898 
3818.000000	97.813154 
3817.000000	97.812623 
3816.000000	97.810659 
3815.000000	97.810130 
3814.000000	97.811803 
3813.000000	97.813035 
3812.000000	97.812190 
3811.000000	97.810723 
3810.000000	97.810558 
3809.000000	97.813143 
3808.000000	97.817872 
3807.000000	97.823316 
3806.000000	97.827922 
3805.000000	97.829377 
3804.000000	97.826968 
3803.000000	97.821804 
3802.000000	97.816174 
3801.000000	97.812982 
3800.000000	97.814041 
3799.000000	97.816432 
3798.000000	97.815685 
3797.000000	97.810760 
3796.000000	97.805043 
3795.000000	97.801734 
3794.000000	97.801456 
3793.000000	97.802283 
3792.000000	97.803367 
3791.000000	97.805528 
3790.000000	97.809031 
3789.000000	97.812937 
3788.000000	97.815399 
3787.000000	97.815402 
3786.000000	97.813825 
3785.000000	97.812353 
3784.000000	97.812015 
3783.000000	97.812616 
3782.000000	97.812422 
3781.000000	97.810409 
3780.000000	97.808083 
3779.000000	97.807970 
3778.000000	97.811666 
3777.000000	97.817713 
3776.000000	97.823218 
3775.000000	97.826080 
3774.000000	97.825566 
3773.000000	97.822761 
3772.000000	97.819816 
3771.000000	97.819790 
3770.000000	97.824117 
3769.000000	97.830770 
3768.000000	97.834513 
3767.000000	97.832438 
3766.000000	97.825947 
3765.000000	97.819732 
3764.000000	97.818616 
3763.000000	97.822819 
3762.000000	97.829039 
3761.000000	97.833592 
3760.000000	97.834570 
3759.000000	97.833135 
3758.000000	97.831985 
3757.000000	97.833883 
3756.000000	97.838463 
3755.000000	97.844438 
3754.000000	97.851658 
3753.000000	97.860955 
3752.000000	97.870399 
3751.000000	97.874922 
3750.000000	97.871706 
3749.000000	97.864123 
3748.000000	97.855501 
3747.000000	97.845467 
3746.000000	97.832863 
3745.000000	97.818582 
3744.000000	97.808660 
3743.000000	97.808517 
3742.000000	97.812993 
3741.000000	97.815285 
3740.000000	97.815560 
3739.000000	97.818593 
3738.000000	97.826215 
3737.000000	97.835187 
3736.000000	97.840468 
3735.000000	97.840788 
3734.000000	97.841118 
3733.000000	97.843639 
3732.000000	97.844555 
3731.000000	97.841835 
3730.000000	97.837005 
3729.000000	97.831406 
3728.000000	97.825669 
3727.000000	97.820734 
3726.000000	97.817944 
3725.000000	97.817349 
3724.000000	97.817647 
3723.000000	97.818305 
3722.000000	97.820290 
3721.000000	97.823550 
3720.000000	97.826837 
3719.000000	97.829428 
3718.000000	97.830764 
3717.000000	97.830072 
3716.000000	97.826735 
3715.000000	97.821520 
3714.000000	97.815107 
3713.000000	97.806194 
3712.000000	97.792598 
3711.000000	97.777020 
3710.000000	97.765771 
3709.000000	97.761236 
3708.000000	97.760528 
3707.000000	97.760679 
3706.000000	97.761282 
3705.000000	97.762284 
3704.000000	97.763156 
3703.000000	97.763400 
3702.000000	97.761606 
3701.000000	97.756825 
3700.000000	97.749600 
3699.000000	97.742574 
3698.000000	97.737042 
3697.000000	97.731603 
3696.000000	97.723044 
3695.000000	97.708717 
3694.000000	97.687723 
3693.000000	97.661314 
3692.000000	97.633717 
3691.000000	97.610191 
3690.000000	97.591648 
3689.000000	97.570753 
3688.000000	97.540065 
3687.000000	97.500882 
3686.000000	97.457763 
3685.000000	97.410760 
3684.000000	97.353944 
3683.000000	97.270118 
3682.000000	97.120148 
3681.000000	96.848973 
3680.000000	96.423440 
3679.000000	95.877007 
3678.000000	95.321200 
3677.000000	94.931876 
3676.000000	94.897949 
3675.000000	95.245793 
3674.000000	95.747230 
3673.000000	96.183220 
3672.000000	96.508123 
3671.000000	96.753648 
3670.000000	96.937134 
3669.000000	97.057381 
3668.000000	97.126202 
3667.000000	97.164570 
3666.000000	97.184025 
3665.000000	97.186926 
3664.000000	97.174187 
3663.000000	97.150534 
3662.000000	97.125929 
3661.000000	97.113558 
3660.000000	97.122697 
3659.000000	97.151787 
3658.000000	97.189578 
3657.000000	97.221430 
3656.000000	97.239077 
3655.000000	97.244597 
3654.000000	97.244365 
3653.000000	97.242161 
3652.000000	97.239214 
3651.000000	97.233948 
3650.000000	97.221562 
3649.000000	97.197087 
3648.000000	97.164767 
3647.000000	97.134357 
3646.000000	97.112190 
3645.000000	97.098512 
3644.000000	97.089370 
3643.000000	97.080126 
3642.000000	97.067780 
3641.000000	97.053156 
3640.000000	97.038612 
3639.000000	97.025445 
3638.000000	97.013565 
3637.000000	97.002266 
3636.000000	96.990495 
3635.000000	96.976969 
3634.000000	96.962663 
3633.000000	96.950697 
3632.000000	96.942370 
3631.000000	96.933039 
3630.000000	96.915078 
3629.000000	96.886427 
3628.000000	96.859127 
3627.000000	96.844362 
3626.000000	96.836188 
3625.000000	96.826469 
3624.000000	96.814340 
3623.000000	96.804312 
3622.000000	96.799221 
3621.000000	96.795655 
3620.000000	96.783809 
3619.000000	96.756031 
3618.000000	96.715336 
3617.000000	96.672626 
3616.000000	96.635030 
3615.000000	96.600691 
3614.000000	96.563807 
3613.000000	96.522404 
3612.000000	96.480730 
3611.000000	96.442399 
3610.000000	96.403050 
3609.000000	96.355282 
3608.000000	96.299331 
3607.000000	96.244584 
3606.000000	96.197989 
3605.000000	96.157422 
3604.000000	96.116857 
3603.000000	96.073025 
3602.000000	96.026655 
3601.000000	95.980577 
3600.000000	95.937640 
3599.000000	95.898285 
3598.000000	95.859347 
3597.000000	95.816520 
3596.000000	95.768767 
3595.000000	95.718487 
3594.000000	95.670112 
3593.000000	95.627924 
3592.000000	95.594767 
3591.000000	95.570506 
3590.000000	95.550069 
3589.000000	95.521993 
3588.000000	95.474971 
3587.000000	95.410238 
3586.000000	95.344607 
3585.000000	95.294019 
3584.000000	95.260184 
3583.000000	95.235941 
3582.000000	95.213242 
3581.000000	95.187204 
3580.000000	95.158070 
3579.000000	95.128838 
3578.000000	95.101320 
3577.000000	95.074974 
3576.000000	95.049220 
3575.000000	95.025042 
3574.000000	95.004172 
3573.000000	94.988138 
3572.000000	94.977988 
3571.000000	94.973596 
3570.000000	94.971770 
3569.000000	94.965208 
3568.000000	94.944525 
3567.000000	94.906621 
3566.000000	94.862739 
3565.000000	94.830112 
3564.000000	94.815066 
3563.000000	94.811380 
3562.000000	94.809777 
3561.000000	94.805183 
3560.000000	94.797749 
3559.000000	94.790311 
3558.000000	94.784473 
3557.000000	94.779990 
3556.000000	94.776306 
3555.000000	94.773038 
3554.000000	94.769050 
3553.000000	94.763562 
3552.000000	94.758150 
3551.000000	94.756238 
3550.000000	94.760025 
3549.000000	94.768241 
3548.000000	94.776562 
3547.000000	94.779804 
3546.000000	94.774575 
3545.000000	94.762332 
3544.000000	94.749205 
3543.000000	94.740627 
3542.000000	94.737932 
3541.000000	94.739887 
3540.000000	94.744805 
3539.000000	94.751317 
3538.000000	94.757444 
3537.000000	94.761064 
3536.000000	94.761977 
3535.000000	94.762089 
3534.000000	94.763598 
3533.000000	94.767306 
3532.000000	94.772953 
3531.000000	94.779613 
3530.000000	94.785645 
3529.000000	94.788878 
3528.000000	94.788578 
3527.000000	94.786368 
3526.000000	94.784330 
3525.000000	94.782170 
3524.000000	94.777703 
3523.000000	94.770201 
3522.000000	94.762156 
3521.000000	94.756986 
3520.000000	94.755531 
3519.000000	94.755912 
3518.000000	94.756126 
3517.000000	94.755445 
3516.000000	94.754200 
3515.000000	94.753052 
3514.000000	94.753082 
3513.000000	94.755186 
3512.000000	94.758404 
3511.000000	94.759252 
3510.000000	94.754516 
3509.000000	94.744811 
3508.000000	94.734813 
3507.000000	94.728904 
3506.000000	94.727379 
3505.000000	94.727367 
3504.000000	94.725627 
3503.000000	94.720241 
3502.000000	94.711661 
3501.000000	94.702184 
3500.000000	94.693931 
3499.000000	94.687330 
3498.000000	94.681045 
3497.000000	94.673400 
3496.000000	94.664085 
3495.000000	94.654204 
3494.000000	94.645029 
3493.000000	94.637095 
3492.000000	94.630372 
3491.000000	94.624685 
3490.000000	94.619325 
3489.000000	94.612389 
3488.000000	94.601839 
3487.000000	94.587995 
3486.000000	94.574347 
3485.000000	94.564734 
3484.000000	94.559290 
3483.000000	94.553602 
3482.000000	94.542853 
3481.000000	94.526569 
3480.000000	94.508878 
3479.000000	94.493989 
3478.000000	94.482316 
3477.000000	94.471311 
3476.000000	94.458670 
3475.000000	94.443971 
3474.000000	94.428080 
3473.000000	94.411883 
3472.000000	94.395448 
3471.000000	94.378146 
3470.000000	94.359497 
3469.000000	94.339952 
3468.000000	94.320787 
3467.000000	94.303087 
3466.000000	94.286631 
3465.000000	94.269992 
3464.000000	94.251717 
3463.000000	94.231425 
3462.000000	94.210003 
3461.000000	94.188662 
3460.000000	94.167719 
3459.000000	94.146382 
3458.000000	94.123908 
3457.000000	94.100919 
3456.000000	94.078997 
3455.000000	94.058855 
3454.000000	94.039829 
3453.000000	94.021063 
3452.000000	94.002759 
3451.000000	93.985150 
3450.000000	93.967137 
3449.000000	93.946803 
3448.000000	93.923191 
3447.000000	93.897366 
3446.000000	93.871702 
3445.000000	93.847980 
3444.000000	93.826145 
3443.000000	93.804803 
3442.000000	93.782862 
3441.000000	93.760961 
3440.000000	93.740777 
3439.000000	93.722788 
3438.000000	93.705580 
3437.000000	93.687561 
3436.000000	93.668576 
3435.000000	93.649346 
3434.000000	93.630158 
3433.000000	93.610522 
3432.000000	93.590117 
3431.000000	93.569317 
3430.000000	93.549396 
3429.000000	93.532314 
3428.000000	93.519418 
3427.000000	93.509836 
3426.000000	93.500451 
3425.000000	93.487899 
3424.000000	93.470488 
3423.000000	93.448832 
3422.000000	93.425835 
3421.000000	93.405932 
3420.000000	93.392380 
3419.000000	93.384093 
3418.000000	93.376199 
3417.000000	93.364486 
3416.000000	93.348947 
3415.000000	93.333031 
3414.000000	93.320348 
3413.000000	93.312202 
3412.000000	93.307070 
3411.000000	93.301851 
3410.000000	93.294411 
3409.000000	93.285480 
3408.000000	93.277479 
3407.000000	93.271575 
3406.000000	93.266705 
3405.000000	93.261403 
3404.000000	93.255259 
3403.000000	93.248588 
3402.000000	93.242186 
3401.000000	93.237491 
3400.000000	93.235360 
3399.000000	93.234114 
3398.000000	93.230748 
3397.000000	93.224961 
3396.000000	93.220310 
3395.000000	93.219857 
3394.000000	93.222121 
3393.000000	93.223161 
3392.000000	93.221588 
3391.000000	93.219485 
3390.000000	93.218928 
3389.000000	93.219594 
3388.000000	93.219804 
3387.000000	93.218589 
3386.000000	93.216491 
3385.000000	93.215136 
3384.000000	93.215985 
3383.000000	93.218733 
3382.000000	93.221226 
3381.000000	93.221546 
3380.000000	93.220031 
3379.000000	93.218570 
3378.000000	93.218484 
3377.000000	93.220042 
3376.000000	93.223367 
3375.000000	93.228221 
3374.000000	93.232864 
3373.000000	93.234899 
3372.000000	93.234064 
3371.000000	93.233230 
3370.000000	93.235549 
3369.000000	93.240983 
3368.000000	93.246409 
3367.000000	93.249110 
3366.000000	93.249503 
3365.000000	93.250290 
3364.000000	93.253385 
3363.000000	93.258154 
3362.000000	93.262672 
3361.000000	93.266206 
3360.000000	93.269728 
3359.000000	93.274040 
3358.000000	93.278299 
3357.000000	93.280867 
3356.000000	93.281194 
3355.000000	93.280473 
3354.000000	93.280816 
3353.000000	93.284072 
3352.000000	93.290956 
3351.000000	93.300760 
3350.000000	93.311864 
3349.000000	93.322581 
3348.000000	93.331374 
3347.000000	93.336989 
3346.000000	93.339546 
3345.000000	93.341362 
3344.000000	93.345275 
3343.000000	93.351545 
3342.000000	93.357815 
3341.000000	93.362722 
3340.000000	93.368074 
3339.000000	93.376121 
3338.000000	93.385951 
3337.000000	93.394555 
3336.000000	93.400870 
3335.000000	93.406745 
3334.000000	93.413945 
3333.000000	93.422112 
3332.000000	93.430011 
3331.000000	93.437201 
3330.000000	93.443962 
3329.000000	93.450743 
3328.000000	93.458237 
3327.000000	93.467035 
3326.000000	93.476647 
3325.000000	93.485754 
3324.000000	93.494125 
3323.000000	93.503280 
3322.000000	93.514278 
3321.000000	93.525440 
3320.000000	93.533600 
3319.000000	93.537778 
3318.000000	93.540721 
3317.000000	93.546286 
3316.000000	93.555761 
3315.000000	93.567139 
3314.000000	93.577737 
3313.000000	93.586905 
3312.000000	93.596091 
3311.000000	93.606757 
3310.000000	93.618650 
3309.000000	93.629921 
3308.000000	93.638739 
3307.000000	93.644951 
3306.000000	93.650313 
3305.000000	93.656777 
3304.000000	93.664346 
3303.000000	93.671142 
3302.000000	93.676180 
3301.000000	93.681500 
3300.000000	93.690588 
3299.000000	93.704788 
3298.000000	93.722249 
3297.000000	93.740157 
3296.000000	93.756847 
3295.000000	93.771510 
3294.000000	93.783313 
3293.000000	93.791922 
3292.000000	93.798366 
3291.000000	93.804591 
3290.000000	93.812310 
3289.000000	93.822277 
3288.000000	93.833897 
3287.000000	93.845258 
3286.000000	93.854620 
3285.000000	93.862641 
3284.000000	93.872316 
3283.000000	93.885820 
3282.000000	93.901874 
3281.000000	93.917128 
3280.000000	93.929678 
3279.000000	93.940527 
3278.000000	93.951988 
3277.000000	93.965459 
3276.000000	93.980555 
3275.000000	93.995599 
3274.000000	94.008916 
3273.000000	94.020136 
3272.000000	94.030277 
3271.000000	94.040468 
3270.000000	94.051083 
3269.000000	94.062391 
3268.000000	94.075333 
3267.000000	94.090705 
3266.000000	94.107683 
3265.000000	94.123893 
3264.000000	94.137313 
3263.000000	94.147954 
3262.000000	94.157588 
3261.000000	94.168153 
3260.000000	94.180333 
3259.000000	94.193542 
3258.000000	94.206998 
3257.000000	94.220680 
3256.000000	94.235192 
3255.000000	94.250881 
3254.000000	94.267359 
3253.000000	94.283723 
3252.000000	94.299085 
3251.000000	94.312997 
3250.000000	94.325892 
3249.000000	94.338847 
3248.000000	94.352420 
3247.000000	94.365933 
3246.000000	94.378510 
3245.000000	94.390554 
3244.000000	94.403255 
3243.000000	94.416593 
3242.000000	94.428912 
3241.000000	94.438965 
3240.000000	94.447621 
3239.000000	94.457207 
3238.000000	94.469655 
3237.000000	94.485539 
3236.000000	94.504102 
3235.000000	94.523664 
3234.000000	94.542450 
3233.000000	94.559369 
3232.000000	94.573865 
3231.000000	94.585129 
3230.000000	94.592506 
3229.000000	94.596971 
3228.000000	94.601273 
3227.000000	94.608088 
3226.000000	94.618487 
3225.000000	94.632182 
3224.000000	94.648158 
3223.000000	94.664504 
3222.000000	94.678795 
3221.000000	94.689816 
3220.000000	94.698621 
3219.000000	94.707586 
3218.000000	94.718854 
3217.000000	94.733772 
3216.000000	94.752201 
3215.000000	94.771315 
3214.000000	94.786317 
3213.000000	94.794224 
3212.000000	94.796917 
3211.000000	94.799414 
3210.000000	94.805530 
3209.000000	94.815911 
3208.000000	94.829266 
3207.000000	94.843937 
3206.000000	94.858496 
3205.000000	94.872363 
3204.000000	94.886112 
3203.000000	94.900282 
3202.000000	94.913809 
3201.000000	94.924818 
3200.000000	94.933033 
3199.000000	94.940486 
3198.000000	94.949541 
3197.000000	94.961171 
3196.000000	94.975219 
3195.000000	94.991204 
3194.000000	95.008150 
3193.000000	95.024339 
3192.000000	95.038127 
3191.000000	95.049134 
3190.000000	95.058683 
3189.000000	95.069272 
3188.000000	95.083320 
3187.000000	95.101526 
3186.000000	95.121899 
3185.000000	95.140963 
3184.000000	95.156336 
3183.000000	95.168251 
3182.000000	95.178516 
3181.000000	95.188441 
3180.000000	95.197912 
3179.000000	95.206227 
3178.000000	95.213672 
3177.000000	95.222163 
3176.000000	95.233764 
3175.000000	95.248234 
3174.000000	95.262587 
3173.000000	95.273902 
3172.000000	95.282611 
3171.000000	95.292154 
3170.000000	95.305027 
3169.000000	95.319766 
3168.000000	95.332442 
3167.000000	95.340836 
3166.000000	95.346495 
3165.000000	95.352851 
3164.000000	95.362084 
3163.000000	95.374316 
3162.000000	95.388915 
3161.000000	95.405144 
3160.000000	95.421406 
3159.000000	95.435599 
3158.000000	95.447621 
3157.000000	95.460436 
3156.000000	95.476570 
3155.000000	95.493987 
3154.000000	95.507870 
3153.000000	95.516965 
3152.000000	95.525620 
3151.000000	95.538244 
3150.000000	95.553853 
3149.000000	95.567936 
3148.000000	95.578252 
3147.000000	95.586406 
3146.000000	95.594491 
3145.000000	95.602912 
3144.000000	95.611791 
3143.000000	95.622382 
3142.000000	95.635987 
3141.000000	95.652051 
3140.000000	95.667716 
3139.000000	95.679049 
3138.000000	95.683469 
3137.000000	95.682273 
3136.000000	95.680739 
3135.000000	95.684341 
3134.000000	95.694419 
3133.000000	95.707937 
3132.000000	95.721074 
3131.000000	95.732021 
3130.000000	95.740542 
3129.000000	95.746715 
3128.000000	95.751122 
3127.000000	95.755181 
3126.000000	95.760468 
3125.000000	95.768150 
3124.000000	95.778959 
3123.000000	95.792648 
3122.000000	95.806989 
3121.000000	95.818450 
3120.000000	95.824990 
3119.000000	95.828025 
3118.000000	95.831308 
3117.000000	95.837874 
3116.000000	95.847818 
3115.000000	95.858566 
3114.000000	95.867147 
3113.000000	95.872465 
3112.000000	95.875617 
3111.000000	95.878030 
3110.000000	95.880009 
3109.000000	95.881361 
3108.000000	95.882597 
3107.000000	95.884535 
3106.000000	95.887252 
3105.000000	95.890532 
3104.000000	95.894777 
3103.000000	95.900234 
3102.000000	95.905575 
3101.000000	95.908715 
3100.000000	95.909242 
3099.000000	95.909254 
3098.000000	95.911499 
3097.000000	95.917211 
3096.000000	95.925514 
3095.000000	95.934301 
3094.000000	95.942038 
3093.000000	95.949284 
3092.000000	95.957892 
3091.000000	95.967997 
3090.000000	95.976698 
3089.000000	95.980872 
3088.000000	95.980872 
3087.000000	95.980070 
3086.000000	95.980976 
3085.000000	95.983339 
3084.000000	95.985868 
3083.000000	95.987976 
3082.000000	95.989245 
3081.000000	95.988658 
3080.000000	95.985455 
3079.000000	95.980209 
3078.000000	95.974368 
3077.000000	95.969218 
3076.000000	95.965398 
3075.000000	95.962645 
3074.000000	95.959714 
3073.000000	95.955279 
3072.000000	95.949540 
3071.000000	95.944310 
3070.000000	95.941105 
3069.000000	95.939314 
3068.000000	95.936463 
3067.000000	95.930332 
3066.000000	95.920984 
3065.000000	95.911197 
3064.000000	95.904527 
3063.000000	95.902292 
3062.000000	95.902547 
3061.000000	95.902480 
3060.000000	95.901464 
3059.000000	95.901336 
3058.000000	95.903951 
3057.000000	95.909299 
3056.000000	95.916153 
3055.000000	95.923433 
3054.000000	95.930700 
3053.000000	95.937836 
3052.000000	95.944891 
3051.000000	95.952200 
3050.000000	95.960292 
3049.000000	95.969426 
3048.000000	95.978775 
3047.000000	95.986026 
3046.000000	95.988521 
3045.000000	95.985402 
3044.000000	95.978434 
3043.000000	95.970309 
3042.000000	95.962327 
3041.000000	95.954477 
3040.000000	95.947219 
3039.000000	95.942378 
3038.000000	95.942009 
3037.000000	95.947066 
3036.000000	95.957245 
3035.000000	95.971486 
3034.000000	95.988554 
3033.000000	96.007615 
3032.000000	96.028557 
3031.000000	96.051585 
3030.000000	96.076633 
3029.000000	96.103523 
3028.000000	96.132177 
3027.000000	96.161997 
3026.000000	96.191118 
3025.000000	96.217259 
3024.000000	96.239537 
3023.000000	96.258752 
3022.000000	96.276048 
3021.000000	96.291940 
3020.000000	96.306655 
3019.000000	96.320411 
3018.000000	96.332985 
3017.000000	96.343620 
3016.000000	96.351673 
3015.000000	96.356995 
3014.000000	96.359613 
3013.000000	96.359634 
3012.000000	96.357648 
3011.000000	96.354631 
3010.000000	96.351118 
3009.000000	96.346874 
3008.000000	96.341672 
3007.000000	96.335992 
3006.000000	96.330529 
3005.000000	96.325149 
3004.000000	96.318578 
3003.000000	96.309364 
3002.000000	96.297203 
3001.000000	96.283499 
3000.000000	96.270355 
2999.000000	96.258661 
2998.000000	96.247083 
2997.000000	96.232921 
2996.000000	96.214024 
2995.000000	96.189937 
2994.000000	96.161570 
2993.000000	96.129919 
2992.000000	96.094780 
2991.000000	96.054547 
2990.000000	96.007456 
2989.000000	95.953250 
2988.000000	95.893500 
2987.000000	95.830131 
2986.000000	95.763869 
2985.000000	95.693972 
2984.000000	95.618873 
2983.000000	95.536782 
2982.000000	95.446427 
2981.000000	95.348074 
2980.000000	95.243492 
2979.000000	95.134393 
2978.000000	95.021079 
2977.000000	94.903187 
2976.000000	94.781333 
2975.000000	94.657333 
2974.000000	94.532844 
2973.000000	94.408563 
2972.000000	94.284904 
2971.000000	94.163028 
2970.000000	94.044727 
2969.000000	93.931390 
2968.000000	93.823313 
2967.000000	93.720586 
2966.000000	93.624975 
2965.000000	93.540545 
2964.000000	93.471520 
2963.000000	93.418864 
2962.000000	93.379628 
2961.000000	93.349782 
2960.000000	93.327333 
2959.000000	93.311947 
2958.000000	93.302553 
2957.000000	93.296407 
2956.000000	93.290634 
2955.000000	93.283796 
2954.000000	93.275646 
2953.000000	93.265647 
2952.000000	93.251985 
2951.000000	93.231717 
2950.000000	93.202064 
2949.000000	93.161879 
2948.000000	93.111949 
2947.000000	93.053250 
2946.000000	92.984778 
2945.000000	92.903144 
2944.000000	92.804868 
2943.000000	92.689211 
2942.000000	92.559246 
2941.000000	92.419785 
2940.000000	92.273891 
2939.000000	92.121284 
2938.000000	91.960602 
2937.000000	91.793122 
2936.000000	91.623544 
2935.000000	91.456811 
2934.000000	91.295028 
2933.000000	91.138335 
2932.000000	90.988231 
2931.000000	90.848776 
2930.000000	90.724655 
2929.000000	90.618438 
2928.000000	90.530494 
2927.000000	90.461168 
2926.000000	90.412577 
2925.000000	90.387658 
2924.000000	90.387895 
2923.000000	90.412565 
2922.000000	90.460510 
2921.000000	90.531782 
2920.000000	90.626712 
2919.000000	90.743603 
2918.000000	90.877674 
2917.000000	91.022379 
2916.000000	91.171274 
2915.000000	91.319340 
2914.000000	91.463368 
2913.000000	91.601788 
2912.000000	91.733869 
2911.000000	91.859067 
2910.000000	91.977250 
2909.000000	92.089013 
2908.000000	92.195316 
2907.000000	92.296725 
2906.000000	92.393561 
2905.000000	92.486632 
2904.000000	92.576991 
2903.000000	92.664548 
2902.000000	92.747695 
2901.000000	92.824189 
2900.000000	92.893501 
2899.000000	92.956610 
2898.000000	93.015179 
2897.000000	93.070467 
2896.000000	93.122586 
2895.000000	93.170561 
2894.000000	93.213744 
2893.000000	93.253470 
2892.000000	93.292463 
2891.000000	93.332228 
2890.000000	93.371484 
2889.000000	93.407819 
2888.000000	93.440239 
2887.000000	93.469531 
2886.000000	93.496829 
2885.000000	93.522366 
2884.000000	93.545057 
2883.000000	93.562351 
2882.000000	93.571258 
2881.000000	93.570511 
2880.000000	93.561476 
2879.000000	93.545808 
2878.000000	93.522659 
2877.000000	93.489564 
2876.000000	93.446054 
2875.000000	93.395377 
2874.000000	93.342050 
2873.000000	93.289194 
2872.000000	93.238880 
2871.000000	93.194096 
2870.000000	93.158795 
2869.000000	93.135376 
2868.000000	93.122434 
2867.000000	93.115199 
2866.000000	93.107628 
2865.000000	93.094497 
2864.000000	93.072070 
2863.000000	93.038115 
2862.000000	92.991752 
2861.000000	92.933447 
2860.000000	92.864930 
2859.000000	92.789475 
2858.000000	92.712546 
2857.000000	92.641359 
2856.000000	92.583370 
2855.000000	92.544556 
2854.000000	92.529613 
2853.000000	92.542774 
2852.000000	92.587208 
2851.000000	92.662915 
2850.000000	92.765997 
2849.000000	92.890060 
2848.000000	93.028734 
2847.000000	93.176792 
2846.000000	93.330351 
2845.000000	93.486658 
2844.000000	93.643766 
2843.000000	93.799723 
2842.000000	93.952099 
2841.000000	94.098352 
2840.000000	94.236508 
2839.000000	94.365308 
2838.000000	94.483936 
2837.000000	94.592007 
2836.000000	94.689650 
2835.000000	94.777244 
2834.000000	94.855045 
2833.000000	94.923371 
2832.000000	94.983225 
2831.000000	95.036572 
2830.000000	95.085831 
2829.000000	95.132890 
2828.000000	95.178318 
2827.000000	95.221566 
2826.000000	95.262177 
2825.000000	95.300505 
2824.000000	95.337006 
2823.000000	95.371318 
2822.000000	95.402995 
2821.000000	95.432887 
2820.000000	95.462576 
2819.000000	95.492170 
2818.000000	95.519971 
2817.000000	95.545079 
2816.000000	95.569149 
2815.000000	95.594454 
2814.000000	95.621082 
2813.000000	95.647105 
2812.000000	95.671029 
2811.000000	95.693004 
2810.000000	95.713801 
2809.000000	95.733789 
2808.000000	95.753237 
2807.000000	95.772689 
2806.000000	95.792648 
2805.000000	95.813123 
2804.000000	95.833607 
2803.000000	95.853365 
2802.000000	95.871926 
2801.000000	95.889543 
2800.000000	95.907007 
2799.000000	95.924866 
2798.000000	95.943031 
2797.000000	95.961096 
2796.000000	95.978463 
2795.000000	95.994124 
2794.000000	96.007236 
2793.000000	96.018596 
2792.000000	96.030757 
2791.000000	96.045786 
2790.000000	96.063129 
2789.000000	96.080204 
2788.000000	96.094880 
2787.000000	96.106934 
2786.000000	96.117633 
2785.000000	96.128557 
2784.000000	96.140617 
2783.000000	96.153448 
2782.000000	96.165784 
2781.000000	96.176701 
2780.000000	96.186294 
2779.000000	96.195198 
2778.000000	96.204069 
2777.000000	96.213617 
2776.000000	96.224255 
2775.000000	96.235204 
2774.000000	96.244755 
2773.000000	96.252183 
2772.000000	96.258665 
2771.000000	96.265645 
2770.000000	96.273048 
2769.000000	96.279847 
2768.000000	96.285686 
2767.000000	96.291003 
2766.000000	96.296138 
2765.000000	96.301292 
2764.000000	96.306955 
2763.000000	96.313408 
2762.000000	96.320051 
2761.000000	96.326083 
2760.000000	96.331686 
2759.000000	96.337759 
2758.000000	96.344601 
2757.000000	96.351520 
2756.000000	96.357617 
2755.000000	96.362489 
2754.000000	96.366415 
2753.000000	96.370343 
2752.000000	96.375362 
2751.000000	96.381748 
2750.000000	96.388788 
2749.000000	96.395751 
2748.000000	96.402345 
2747.000000	96.408012 
2746.000000	96.411875 
2745.000000	96.414153 
2744.000000	96.416762 
2743.000000	96.421575 
2742.000000	96.428502 
2741.000000	96.435980 
2740.000000	96.442605 
2739.000000	96.447567 
2738.000000	96.450397 
2737.000000	96.451516 
2736.000000	96.452524 
2735.000000	96.454857 
2734.000000	96.458443 
2733.000000	96.462280 
2732.000000	96.465625 
2731.000000	96.467960 
2730.000000	96.468912 
2729.000000	96.469368 
2728.000000	96.471691 
2727.000000	96.477236 
2726.000000	96.484331 
2725.000000	96.490165 
2724.000000	96.494215 
2723.000000	96.498231 
2722.000000	96.503311 
2721.000000	96.508657 
2720.000000	96.513238 
2719.000000	96.517005 
2718.000000	96.520307 
2717.000000	96.523447 
2716.000000	96.527037 
2715.000000	96.531515 
2714.000000	96.536166 
2713.000000	96.539870 
2712.000000	96.543073 
2711.000000	96.547721 
2710.000000	96.554765 
2709.000000	96.562822 
2708.000000	96.569890 
2707.000000	96.575423 
2706.000000	96.580133 
2705.000000	96.584483 
2704.000000	96.588257 
2703.000000	96.591292 
2702.000000	96.594089 
2701.000000	96.597591 
2700.000000	96.602365 
2699.000000	96.607848 
2698.000000	96.612613 
2697.000000	96.615735 
2696.000000	96.617804 
2695.000000	96.620298 
2694.000000	96.624135 
2693.000000	96.629111 
2692.000000	96.634379 
2691.000000	96.639071 
2690.000000	96.642740 
2689.000000	96.645623 
2688.000000	96.648307 
2687.000000	96.651038 
2686.000000	96.653890 
2685.000000	96.657630 
2684.000000	96.663309 
2683.000000	96.670384 
2682.000000	96.676361 
2681.000000	96.679300 
2680.000000	96.679891 
2679.000000	96.680136 
2678.000000	96.680868 
2677.000000	96.681924 
2676.000000	96.683836 
2675.000000	96.687575 
2674.000000	96.692692 
2673.000000	96.697355 
2672.000000	96.700430 
2671.000000	96.702476 
2670.000000	96.704494 
2669.000000	96.706793 
2668.000000	96.709285 
2667.000000	96.711870 
2666.000000	96.714053 
2665.000000	96.714762 
2664.000000	96.712950 
2663.000000	96.708307 
2662.000000	96.701535 
2661.000000	96.694100 
2660.000000	96.687281 
2659.000000	96.681075 
2658.000000	96.674611 
2657.000000	96.668075 
2656.000000	96.663359 
2655.000000	96.661961 
2654.000000	96.662967 
2653.000000	96.664150 
2652.000000	96.664470 
2651.000000	96.664487 
2650.000000	96.664902 
2649.000000	96.665989 
2648.000000	96.667996 
2647.000000	96.670820 
2646.000000	96.673433 
2645.000000	96.674851 
2644.000000	96.675515 
2643.000000	96.676710 
2642.000000	96.678862 
2641.000000	96.681495 
2640.000000	96.684522 
2639.000000	96.688212 
2638.000000	96.692005 
2637.000000	96.694598 
2636.000000	96.695420 
2635.000000	96.695166 
2634.000000	96.695005 
2633.000000	96.696070 
2632.000000	96.699221 
2631.000000	96.704136 
2630.000000	96.708885 
2629.000000	96.711538 
2628.000000	96.712155 
2627.000000	96.712320 
2626.000000	96.713175 
2625.000000	96.715009 
2624.000000	96.718117 
2623.000000	96.722541 
2622.000000	96.727071 
2621.000000	96.730029 
2620.000000	96.731171 
2619.000000	96.731781 
2618.000000	96.733062 
2617.000000	96.735315 
2616.000000	96.738313 
2615.000000	96.741291 
2614.000000	96.742949 
2613.000000	96.742885 
2612.000000	96.742780 
2611.000000	96.744872 
2610.000000	96.749224 
2609.000000	96.753526 
2608.000000	96.755544 
2607.000000	96.754981 
2606.000000	96.753475 
2605.000000	96.753653 
2604.000000	96.757353 
2603.000000	96.763629 
2602.000000	96.769119 
2601.000000	96.771583 
2600.000000	96.772290 
2599.000000	96.773735 
2598.000000	96.776061 
2597.000000	96.777452 
2596.000000	96.777149 
2595.000000	96.776251 
2594.000000	96.776100 
2593.000000	96.777589 
2592.000000	96.781390 
2591.000000	96.787080 
2590.000000	96.792624 
2589.000000	96.796387 
2588.000000	96.799096 
2587.000000	96.802159 
2586.000000	96.805000 
2585.000000	96.806067 
2584.000000	96.805773 
2583.000000	96.806177 
2582.000000	96.808258 
2581.000000	96.811592 
2580.000000	96.816157 
2579.000000	96.822114 
2578.000000	96.828054 
2577.000000	96.831759 
2576.000000	96.832858 
2575.000000	96.833052 
2574.000000	96.833929 
2573.000000	96.836130 
2572.000000	96.839890 
2571.000000	96.844463 
2570.000000	96.847719 
2569.000000	96.848582 
2568.000000	96.849302 
2567.000000	96.852877 
2566.000000	96.858573 
2565.000000	96.862590 
2564.000000	96.862940 
2563.000000	96.861303 
2562.000000	96.860170 
2561.000000	96.860563 
2560.000000	96.862583 
2559.000000	96.865749 
2558.000000	96.868417 
2557.000000	96.869018 
2556.000000	96.868274 
2555.000000	96.868441 
2554.000000	96.870358 
2553.000000	96.872992 
2552.000000	96.875586 
2551.000000	96.878221 
2550.000000	96.880503 
2549.000000	96.881833 
2548.000000	96.882941 
2547.000000	96.885160 
2546.000000	96.888317 
2545.000000	96.891213 
2544.000000	96.893706 
2543.000000	96.896162 
2542.000000	96.897551 
2541.000000	96.896808 
2540.000000	96.895776 
2539.000000	96.897836 
2538.000000	96.903402 
2537.000000	96.909388 
2536.000000	96.913420 
2535.000000	96.916021 
2534.000000	96.918266 
2533.000000	96.920073 
2532.000000	96.921577 
2531.000000	96.923749 
2530.000000	96.926701 
2529.000000	96.929347 
2528.000000	96.931443 
2527.000000	96.934044 
2526.000000	96.937308 
2525.000000	96.939841 
2524.000000	96.940945 
2523.000000	96.941768 
2522.000000	96.943618 
2521.000000	96.946773 
2520.000000	96.951368 
2519.000000	96.957609 
2518.000000	96.964440 
2517.000000	96.969659 
2516.000000	96.972303 
2515.000000	96.973786 
2514.000000	96.976242 
2513.000000	96.980782 
2512.000000	96.987408 
2511.000000	96.995189 
2510.000000	97.002115 
2509.000000	97.006007 
2508.000000	97.006086 
2507.000000	97.003249 
2506.000000	96.999309 
2505.000000	96.996798 
2504.000000	96.998269 
2503.000000	97.003811 
2502.000000	97.009707 
2501.000000	97.011527 
2500.000000	97.008642 
2499.000000	97.004300 
2498.000000	97.001626 
2497.000000	97.001286 
2496.000000	97.002507 
2495.000000	97.004518 
2494.000000	97.006920 
2493.000000	97.010136 
2492.000000	97.015315 
2491.000000	97.022518 
2490.000000	97.029519 
2489.000000	97.033872 
2488.000000	97.035584 
2487.000000	97.036336 
2486.000000	97.036985 
2485.000000	97.037514 
2484.000000	97.038432 
2483.000000	97.040174 
2482.000000	97.041972 
2481.000000	97.043354 
2480.000000	97.045827 
2479.000000	97.050822 
2478.000000	97.056861 
2477.000000	97.061205 
2476.000000	97.063501 
2475.000000	97.065251 
2474.000000	97.066476 
2473.000000	97.065862 
2472.000000	97.063824 
2471.000000	97.062539 
2470.000000	97.062947 
2469.000000	97.064286 
2468.000000	97.066348 
2467.000000	97.069604 
2466.000000	97.073238 
2465.000000	97.075749 
2464.000000	97.077451 
2463.000000	97.079684 
2462.000000	97.081596 
2461.000000	97.080621 
2460.000000	97.076566 
2459.000000	97.072422 
2458.000000	97.070471 
2457.000000	97.069968 
2456.000000	97.069276 
2455.000000	97.068039 
2454.000000	97.066712 
2453.000000	97.066080 
2452.000000	97.067706 
2451.000000	97.072721 
2450.000000	97.079617 
2449.000000	97.085206 
2448.000000	97.088283 
2447.000000	97.090538 
2446.000000	97.093630 
2445.000000	97.097330 
2444.000000	97.100775 
2443.000000	97.103519 
2442.000000	97.105128 
2441.000000	97.105769 
2440.000000	97.107328 
2439.000000	97.111743 
2438.000000	97.117943 
2437.000000	97.122592 
2436.000000	97.124238 
2435.000000	97.124641 
2434.000000	97.125725 
2433.000000	97.127485 
2432.000000	97.129406 
2431.000000	97.131736 
2430.000000	97.134535 
2429.000000	97.137345 
2428.000000	97.140571 
2427.000000	97.145529 
2426.000000	97.152466 
2425.000000	97.159940 
2424.000000	97.166625 
2423.000000	97.172360 
2422.000000	97.177253 
2421.000000	97.181446 
2420.000000	97.186036 
2419.000000	97.192416 
2418.000000	97.200034 
2417.000000	97.206322 
2416.000000	97.209661 
2415.000000	97.211368 
2414.000000	97.214216 
2413.000000	97.219614 
2412.000000	97.226393 
2411.000000	97.231924 
2410.000000	97.234866 
2409.000000	97.237420 
2408.000000	97.243989 
2407.000000	97.256487 
2406.000000	97.271740 
2405.000000	97.284620 
2404.000000	97.292706 
2403.000000	97.296804 
2402.000000	97.298654 
2401.000000	97.300087 
2400.000000	97.302810 
2399.000000	97.306532 
2398.000000	97.308362 
2397.000000	97.306624 
2396.000000	97.304336 
2395.000000	97.306094 
2394.000000	97.312051 
2393.000000	97.317922 
2392.000000	97.320679 
2391.000000	97.321135 
2390.000000	97.320570 
2389.000000	97.317607 
2388.000000	97.309321 
2387.000000	97.293696 
2386.000000	97.270972 
2385.000000	97.245185 
2384.000000	97.225494 
2383.000000	97.224043 
2382.000000	97.250691 
2381.000000	97.309040 
2380.000000	97.395486 
2379.000000	97.499142 
2378.000000	97.602922 
2377.000000	97.688447 
2376.000000	97.742015 
2375.000000	97.756324 
2374.000000	97.730204 
2373.000000	97.672276 
2372.000000	97.603810 
2371.000000	97.550260 
2370.000000	97.525787 
2369.000000	97.527746 
2368.000000	97.543428 
2367.000000	97.557921 
2366.000000	97.561431 
2365.000000	97.557752 
2364.000000	97.560223 
2363.000000	97.571574 
2362.000000	97.577289 
2361.000000	97.568103 
2360.000000	97.555460 
2359.000000	97.551944 
2358.000000	97.560202 
2357.000000	97.584581 
2356.000000	97.631562 
2355.000000	97.690909 
2354.000000	97.746140 
2353.000000	97.787975 
2352.000000	97.798555 
2351.000000	97.755620 
2350.000000	97.668033 
2349.000000	97.582368 
2348.000000	97.540886 
2347.000000	97.545511 
2346.000000	97.559291 
2345.000000	97.542859 
2344.000000	97.495527 
2343.000000	97.446988 
2342.000000	97.432668 
2341.000000	97.463722 
2340.000000	97.513219 
2339.000000	97.543782 
2338.000000	97.544001 
2337.000000	97.532994 
2336.000000	97.528675 
2335.000000	97.532177 
2334.000000	97.538953 
2333.000000	97.551549 
2332.000000	97.564137 
2331.000000	97.561024 
2330.000000	97.527357 
2329.000000	97.465388 
2328.000000	97.384937 
2327.000000	97.295190 
2326.000000	97.206075 
2325.000000	97.133912 
2324.000000	97.097556 
2323.000000	97.105463 
2322.000000	97.145799 
2321.000000	97.192940 
2320.000000	97.223891 
2319.000000	97.233462 
2318.000000	97.228321 
2317.000000	97.220752 
2316.000000	97.218899 
2315.000000	97.224308 
2314.000000	97.228863 
2313.000000	97.224117 
2312.000000	97.207958 
2311.000000	97.186885 
2310.000000	97.168766 
2309.000000	97.158005 
2308.000000	97.154737 
2307.000000	97.156620 
2306.000000	97.157988 
2305.000000	97.152227 
2304.000000	97.136325 
2303.000000	97.114453 
2302.000000	97.093813 
2301.000000	97.079977 
2300.000000	97.072690 
2299.000000	97.068073 
2298.000000	97.061324 
2297.000000	97.052365 
2296.000000	97.045478 
2295.000000	97.044747 
2294.000000	97.048940 
2293.000000	97.053361 
2292.000000	97.054346 
2291.000000	97.050367 
2290.000000	97.041542 
2289.000000	97.030214 
2288.000000	97.021415 
2287.000000	97.018532 
2286.000000	97.020565 
2285.000000	97.025381 
2284.000000	97.034459 
2283.000000	97.050226 
2282.000000	97.070865 
2281.000000	97.091838 
2280.000000	97.111455 
2279.000000	97.129984 
2278.000000	97.145006 
2277.000000	97.153793 
2276.000000	97.158986 
2275.000000	97.165909 
2274.000000	97.174045 
2273.000000	97.177961 
2272.000000	97.176634 
2271.000000	97.176185 
2270.000000	97.181763 
2269.000000	97.192420 
2268.000000	97.204786 
2267.000000	97.217071 
2266.000000	97.228017 
2265.000000	97.236523 
2264.000000	97.243551 
2263.000000	97.250308 
2262.000000	97.254420 
2261.000000	97.251886 
2260.000000	97.243012 
2259.000000	97.232132 
2258.000000	97.222375 
2257.000000	97.215861 
2256.000000	97.217920 
2255.000000	97.234043 
2254.000000	97.261034 
2253.000000	97.287066 
2252.000000	97.302274 
2251.000000	97.305542 
2250.000000	97.300840 
2249.000000	97.292731 
2248.000000	97.286252 
2247.000000	97.284310 
2246.000000	97.284325 
2245.000000	97.281220 
2244.000000	97.274860 
2243.000000	97.269785 
2242.000000	97.267706 
2241.000000	97.266212 
2240.000000	97.265270 
2239.000000	97.268436 
2238.000000	97.275772 
2237.000000	97.281209 
2236.000000	97.279752 
2235.000000	97.273343 
2234.000000	97.267818 
2233.000000	97.267590 
2232.000000	97.273538 
2231.000000	97.281957 
2230.000000	97.285090 
2229.000000	97.277852 
2228.000000	97.264773 
2227.000000	97.256171 
2226.000000	97.257135 
2225.000000	97.264290 
2224.000000	97.272824 
2223.000000	97.281271 
2222.000000	97.289188 
2221.000000	97.295364 
2220.000000	97.299739 
2219.000000	97.303288 
2218.000000	97.305881 
2217.000000	97.307601 
2216.000000	97.310766 
2215.000000	97.316287 
2214.000000	97.320037 
2213.000000	97.317905 
2212.000000	97.312398 
2211.000000	97.308784 
2210.000000	97.307133 
2209.000000	97.304723 
2208.000000	97.303637 
2207.000000	97.308150 
2206.000000	97.315783 
2205.000000	97.318733 
2204.000000	97.313923 
2203.000000	97.304548 
2202.000000	97.293016 
2201.000000	97.280450 
2200.000000	97.272377 
2199.000000	97.275768 
2198.000000	97.289005 
2197.000000	97.301922 
2196.000000	97.307537 
2195.000000	97.307702 
2194.000000	97.306167 
2193.000000	97.302540 
2192.000000	97.294409 
2191.000000	97.280761 
2190.000000	97.263092 
2189.000000	97.247010 
2188.000000	97.240641 
2187.000000	97.245783 
2186.000000	97.253676 
2185.000000	97.256195 
2184.000000	97.259061 
2183.000000	97.276244 
2182.000000	97.311471 
2181.000000	97.351682 
2180.000000	97.378494 
2179.000000	97.381965 
2178.000000	97.366508 
2177.000000	97.350333 
2176.000000	97.354051 
2175.000000	97.379720 
2174.000000	97.404528 
2173.000000	97.403087 
2172.000000	97.371734 
2171.000000	97.324525 
2170.000000	97.272785 
2169.000000	97.220444 
2168.000000	97.172909 
2167.000000	97.137068 
2166.000000	97.112612 
2165.000000	97.092001 
2164.000000	97.068346 
2163.000000	97.040192 
2162.000000	97.019488 
2161.000000	97.045611 
2160.000000	97.173536 
2159.000000	97.418099 
2158.000000	97.709071 
2157.000000	97.935051 
2156.000000	98.035366 
2155.000000	98.027280 
2154.000000	97.958907 
2153.000000	97.871808 
2152.000000	97.796136 
2151.000000	97.748009 
2150.000000	97.725306 
2149.000000	97.716850 
2148.000000	97.717718 
2147.000000	97.727828 
2146.000000	97.740943 
2145.000000	97.747463 
2144.000000	97.746341 
2143.000000	97.742636 
2142.000000	97.736350 
2141.000000	97.724774 
2140.000000	97.712566 
2139.000000	97.707878 
2138.000000	97.711695 
2137.000000	97.722195 
2136.000000	97.745191 
2135.000000	97.786234 
2134.000000	97.833384 
2133.000000	97.862376 
2132.000000	97.860851 
2131.000000	97.837334 
2130.000000	97.805791 
2129.000000	97.772795 
2128.000000	97.739510 
2127.000000	97.706577 
2126.000000	97.674379 
2125.000000	97.644233 
2124.000000	97.619650 
2123.000000	97.601822 
2122.000000	97.586106 
2121.000000	97.568510 
2120.000000	97.552588 
2119.000000	97.542757 
2118.000000	97.533757 
2117.000000	97.515712 
2116.000000	97.488256 
2115.000000	97.461317 
2114.000000	97.442102 
2113.000000	97.429877 
2112.000000	97.422824 
2111.000000	97.421211 
2110.000000	97.422390 
2109.000000	97.421013 
2108.000000	97.416368 
2107.000000	97.413194 
2106.000000	97.413726 
2105.000000	97.414926 
2104.000000	97.414272 
2103.000000	97.412672 
2102.000000	97.411356 
2101.000000	97.411447 
2100.000000	97.415715 
2099.000000	97.425387 
2098.000000	97.437186 
2097.000000	97.449515 
2096.000000	97.467815 
2095.000000	97.494845 
2094.000000	97.518915 
2093.000000	97.523463 
2092.000000	97.507119 
2091.000000	97.483916 
2090.000000	97.464036 
2089.000000	97.445535 
2088.000000	97.424899 
2087.000000	97.404596 
2086.000000	97.386787 
2085.000000	97.368867 
2084.000000	97.349006 
2083.000000	97.329797 
2082.000000	97.314112 
2081.000000	97.303318 
2080.000000	97.300248 
2079.000000	97.307127 
2078.000000	97.319316 
2077.000000	97.327605 
2076.000000	97.328382 
2075.000000	97.325489 
2074.000000	97.322485 
2073.000000	97.320076 
2072.000000	97.320153 
2071.000000	97.324613 
2070.000000	97.330401 
2069.000000	97.333014 
2068.000000	97.333892 
2067.000000	97.336732 
2066.000000	97.339078 
2065.000000	97.336823 
2064.000000	97.334659 
2063.000000	97.340095 
2062.000000	97.349823 
2061.000000	97.354466 
2060.000000	97.354044 
2059.000000	97.355277 
2058.000000	97.356216 
2057.000000	97.349885 
2056.000000	97.341475 
2055.000000	97.342197 
2054.000000	97.343028 
2053.000000	97.316349 
2052.000000	97.254138 
2051.000000	97.188795 
2050.000000	97.163402 
2049.000000	97.189798 
2048.000000	97.243782 
2047.000000	97.295392 
2046.000000	97.331337 
2045.000000	97.351521 
2044.000000	97.360438 
2043.000000	97.363575 
2042.000000	97.363888 
2041.000000	97.361094 
2040.000000	97.355878 
2039.000000	97.350607 
2038.000000	97.346148 
2037.000000	97.345289 
2036.000000	97.357692 
2035.000000	97.390443 
2034.000000	97.432779 
2033.000000	97.462590 
2032.000000	97.471118 
2031.000000	97.469209 
2030.000000	97.468510 
2029.000000	97.470888 
2028.000000	97.476881 
2027.000000	97.488825 
2026.000000	97.501871 
2025.000000	97.505820 
2024.000000	97.500087 
2023.000000	97.495896 
2022.000000	97.501105 
2021.000000	97.513498 
2020.000000	97.529134 
2019.000000	97.544990 
2018.000000	97.553471 
2017.000000	97.548284 
2016.000000	97.536970 
2015.000000	97.532886 
2014.000000	97.535439 
2013.000000	97.533093 
2012.000000	97.523402 
2011.000000	97.515748 
2010.000000	97.517049 
2009.000000	97.530649 
2008.000000	97.565360 
2007.000000	97.624726 
2006.000000	97.687025 
2005.000000	97.717932 
2004.000000	97.707459 
2003.000000	97.676582 
2002.000000	97.646793 
2001.000000	97.622014 
2000.000000	97.599709 
1999.000000	97.580053 
1998.000000	97.560681 
1997.000000	97.537234 
1996.000000	97.513304 
1995.000000	97.497961 
1994.000000	97.491236 
1993.000000	97.483087 
1992.000000	97.469636 
1991.000000	97.459187 
1990.000000	97.457074 
1989.000000	97.458252 
1988.000000	97.457990 
1987.000000	97.456068 
1986.000000	97.448641 
1985.000000	97.429286 
1984.000000	97.400239 
1983.000000	97.369137 
1982.000000	97.334030 
1981.000000	97.289440 
1980.000000	97.252030 
1979.000000	97.260798 
1978.000000	97.338160 
1977.000000	97.459595 
1976.000000	97.576328 
1975.000000	97.659855 
1974.000000	97.709856 
1973.000000	97.734380 
1972.000000	97.741389 
1971.000000	97.740636 
1970.000000	97.739306 
1969.000000	97.737799 
1968.000000	97.735036 
1967.000000	97.733632 
1966.000000	97.735649 
1965.000000	97.739099 
1964.000000	97.743255 
1963.000000	97.752275 
1962.000000	97.770188 
1961.000000	97.795180 
1960.000000	97.819904 
1959.000000	97.834915 
1958.000000	97.833018 
1957.000000	97.814990 
1956.000000	97.790110 
1955.000000	97.767131 
1954.000000	97.747452 
1953.000000	97.730421 
1952.000000	97.719788 
1951.000000	97.718385 
1950.000000	97.720239 
1949.000000	97.717227 
1948.000000	97.710909 
1947.000000	97.708973 
1946.000000	97.713409 
1945.000000	97.720845 
1944.000000	97.730424 
1943.000000	97.741085 
1942.000000	97.745207 
1941.000000	97.738200 
1940.000000	97.728865 
1939.000000	97.728692 
1938.000000	97.737134 
1937.000000	97.743905 
1936.000000	97.743034 
1935.000000	97.737663 
1934.000000	97.732082 
1933.000000	97.727535 
1932.000000	97.725782 
1931.000000	97.728225 
1930.000000	97.730661 
1929.000000	97.728643 
1928.000000	97.726085 
1927.000000	97.729222 
1926.000000	97.735531 
1925.000000	97.737132 
1924.000000	97.733138 
1923.000000	97.727376 
1922.000000	97.717414 
1921.000000	97.699020 
1920.000000	97.678343 
1919.000000	97.667800 
1918.000000	97.669412 
1917.000000	97.672009 
1916.000000	97.669688 
1915.000000	97.666621 
1914.000000	97.665326 
1913.000000	97.663468 
1912.000000	97.660578 
1911.000000	97.659074 
1910.000000	97.657381 
1909.000000	97.652109 
1908.000000	97.646698 
1907.000000	97.646929 
1906.000000	97.650101 
1905.000000	97.648363 
1904.000000	97.641951 
1903.000000	97.637033 
1902.000000	97.632974 
1901.000000	97.624600 
1900.000000	97.613502 
1899.000000	97.605533 
1898.000000	97.599838 
1897.000000	97.590516 
1896.000000	97.579004 
1895.000000	97.572722 
1894.000000	97.570971 
1893.000000	97.565459 
1892.000000	97.554765 
1891.000000	97.546432 
1890.000000	97.544641 
1889.000000	97.545467 
1888.000000	97.547757 
1887.000000	97.553804 
1886.000000	97.560117 
1885.000000	97.560272 
1884.000000	97.555100 
1883.000000	97.551438 
1882.000000	97.550701 
1881.000000	97.549005 
1880.000000	97.546317 
1879.000000	97.546265 
1878.000000	97.548685 
1877.000000	97.550447 
1876.000000	97.553616 
1875.000000	97.563425 
1874.000000	97.576909 
1873.000000	97.584223 
1872.000000	97.583116 
1871.000000	97.582496 
1870.000000	97.590202 
1869.000000	97.602696 
1868.000000	97.614027 
1867.000000	97.625156 
1866.000000	97.634214 
1865.000000	97.636619 
1864.000000	97.635198 
1863.000000	97.637299 
1862.000000	97.643583 
1861.000000	97.648333 
1860.000000	97.650657 
1859.000000	97.655051 
1858.000000	97.661065 
1857.000000	97.664027 
1856.000000	97.665492 
1855.000000	97.671067 
1854.000000	97.679287 
1853.000000	97.683782 
1852.000000	97.684399 
1851.000000	97.685922 
1850.000000	97.688743 
1849.000000	97.688406 
1848.000000	97.684697 
1847.000000	97.682765 
1846.000000	97.684867 
1845.000000	97.689284 
1844.000000	97.697055 
1843.000000	97.709350 
1842.000000	97.718211 
1841.000000	97.716367 
1840.000000	97.709899 
1839.000000	97.710717 
1838.000000	97.721323 
1837.000000	97.732026 
1836.000000	97.736515 
1835.000000	97.737247 
1834.000000	97.735142 
1833.000000	97.726725 
1832.000000	97.713646 
1831.000000	97.707029 
1830.000000	97.714310 
1829.000000	97.725368 
1828.000000	97.727603 
1827.000000	97.721553 
1826.000000	97.714863 
1825.000000	97.711743 
1824.000000	97.711574 
1823.000000	97.714000 
1822.000000	97.716641 
1821.000000	97.717318 
1820.000000	97.720852 
1819.000000	97.736418 
1818.000000	97.762887 
1817.000000	97.784043 
1816.000000	97.787535 
1815.000000	97.777654 
1814.000000	97.764037 
1813.000000	97.750433 
1812.000000	97.738353 
1811.000000	97.733170 
1810.000000	97.734724 
1809.000000	97.733145 
1808.000000	97.724938 
1807.000000	97.717764 
1806.000000	97.714861 
1805.000000	97.709973 
1804.000000	97.700914 
1803.000000	97.695416 
1802.000000	97.698202 
1801.000000	97.701474 
1800.000000	97.698147 
1799.000000	97.695502 
1798.000000	97.698268 
1797.000000	97.698867 
1796.000000	97.691569 
1795.000000	97.680822 
1794.000000	97.672850 
1793.000000	97.667759 
1792.000000	97.662876 
1791.000000	97.661237 
1790.000000	97.662306 
1789.000000	97.657955 
1788.000000	97.646212 
1787.000000	97.634574 
1786.000000	97.627973 
1785.000000	97.621720 
1784.000000	97.610950 
1783.000000	97.597798 
1782.000000	97.585949 
1781.000000	97.576560 
1780.000000	97.569208 
1779.000000	97.565395 
1778.000000	97.562229 
1777.000000	97.553699 
1776.000000	97.539508 
1775.000000	97.524808 
1774.000000	97.513895 
1773.000000	97.505382 
1772.000000	97.490879 
1771.000000	97.467598 
1770.000000	97.442012 
1769.000000	97.416952 
1768.000000	97.393603 
1767.000000	97.374778 
1766.000000	97.357758 
1765.000000	97.334598 
1764.000000	97.303665 
1763.000000	97.274108 
1762.000000	97.254504 
1761.000000	97.240712 
1760.000000	97.222541 
1759.000000	97.198648 
1758.000000	97.172656 
1757.000000	97.146706 
1756.000000	97.120244 
1755.000000	97.093700 
1754.000000	97.066746 
1753.000000	97.036367 
1752.000000	97.000212 
1751.000000	96.959141 
1750.000000	96.914351 
1749.000000	96.862629 
1748.000000	96.803027 
1747.000000	96.741390 
1746.000000	96.683026 
1745.000000	96.624184 
1744.000000	96.558707 
1743.000000	96.490304 
1742.000000	96.427972 
1741.000000	96.372268 
1740.000000	96.317600 
1739.000000	96.265359 
1738.000000	96.221801 
1737.000000	96.185818 
1736.000000	96.151680 
1735.000000	96.117884 
1734.000000	96.082774 
1733.000000	96.045210 
1732.000000	96.005560 
1731.000000	95.963079 
1730.000000	95.919723 
1729.000000	95.879733 
1728.000000	95.848460 
1727.000000	95.827687 
1726.000000	95.814133 
1725.000000	95.802725 
1724.000000	95.791202 
1723.000000	95.781136 
1722.000000	95.771017 
1721.000000	95.756824 
1720.000000	95.740933 
1719.000000	95.734068 
1718.000000	95.739332 
1717.000000	95.733234 
1716.000000	95.705862 
1715.000000	95.674998 
1714.000000	95.648527 
1713.000000	95.624004 
1712.000000	95.603775 
1711.000000	95.590426 
1710.000000	95.579623 
1709.000000	95.564586 
1708.000000	95.545687 
1707.000000	95.530756 
1706.000000	95.520653 
1705.000000	95.505896 
1704.000000	95.489887 
1703.000000	95.484159 
1702.000000	95.483322 
1701.000000	95.469993 
1700.000000	95.443100 
1699.000000	95.435772 
1698.000000	95.442059 
1697.000000	95.420872 
1696.000000	95.354365 
1695.000000	95.278128 
1694.000000	95.222625 
1693.000000	95.170101 
1692.000000	95.108334 
1691.000000	95.040691 
1690.000000	94.967999 
1689.000000	94.887895 
1688.000000	94.807983 
1687.000000	94.738561 
1686.000000	94.664267 
1685.000000	94.538450 
1684.000000	94.342552 
1683.000000	94.164269 
1682.000000	94.052468 
1681.000000	93.958016 
1680.000000	93.847714 
1679.000000	93.732782 
1678.000000	93.629696 
1677.000000	93.525932 
1676.000000	93.396377 
1675.000000	93.247708 
1674.000000	93.121182 
1673.000000	93.026489 
1672.000000	92.935633 
1671.000000	92.824981 
1670.000000	92.683686 
1669.000000	92.525527 
1668.000000	92.387058 
1667.000000	92.285841 
1666.000000	92.209114 
1665.000000	92.131275 
1664.000000	92.032355 
1663.000000	91.913761 
1662.000000	91.798094 
1661.000000	91.705002 
1660.000000	91.632191 
1659.000000	91.570583 
1658.000000	91.518691 
1657.000000	91.480739 
1656.000000	91.461483 
1655.000000	91.452351 
1654.000000	91.414440 
1653.000000	91.304303 
1652.000000	91.220735 
1651.000000	91.218424 
1650.000000	91.243787 
1649.000000	91.271701 
1648.000000	91.293518 
1647.000000	91.303442 
1646.000000	91.314870 
1645.000000	91.346177 
1644.000000	91.392346 
1643.000000	91.447210 
1642.000000	91.507947 
1641.000000	91.567949 
1640.000000	91.625789 
1639.000000	91.689788 
1638.000000	91.762940 
1637.000000	91.831042 
1636.000000	91.875399 
1635.000000	91.906092 
1634.000000	91.954652 
1633.000000	92.016313 
1632.000000	92.078375 
1631.000000	92.138941 
1630.000000	92.195853 
1629.000000	92.245165 
1628.000000	92.288159 
1627.000000	92.330067 
1626.000000	92.370948 
1625.000000	92.403340 
1624.000000	92.418523 
1623.000000	92.410784 
1622.000000	92.382598 
1621.000000	92.344786 
1620.000000	92.300533 
1619.000000	92.235551 
1618.000000	92.109081 
1617.000000	91.875254 
1616.000000	91.562442 
1615.000000	91.260277 
1614.000000	90.996989 
1613.000000	90.741795 
1612.000000	90.470574 
1611.000000	90.192452 
1610.000000	89.936775 
1609.000000	89.728332 
1608.000000	89.586716 
1607.000000	89.536299 
1606.000000	89.591184 
1605.000000	89.740321 
1604.000000	89.962137 
1603.000000	90.240727 
1602.000000	90.556680 
1601.000000	90.881065 
1600.000000	91.191186 
1599.000000	91.479871 
1598.000000	91.747221 
1597.000000	91.992558 
1596.000000	92.215554 
1595.000000	92.416573 
1594.000000	92.593603 
1593.000000	92.745371 
1592.000000	92.873251 
1591.000000	92.974791 
1590.000000	93.040268 
1589.000000	93.061644 
1588.000000	93.039424 
1587.000000	92.978299 
1586.000000	92.885467 
1585.000000	92.777037 
1584.000000	92.676959 
1583.000000	92.608009 
1582.000000	92.586662 
1581.000000	92.619451 
1580.000000	92.701945 
1579.000000	92.825944 
1578.000000	92.988594 
1577.000000	93.188116 
1576.000000	93.400609 
1575.000000	93.577591 
1574.000000	93.699514 
1573.000000	93.787804 
1572.000000	93.865345 
1571.000000	93.940664 
1570.000000	94.010455 
1569.000000	94.069923 
1568.000000	94.120342 
1567.000000	94.158504 
1566.000000	94.181707 
1565.000000	94.194481 
1564.000000	94.203913 
1563.000000	94.212184 
1562.000000	94.216561 
1561.000000	94.213448 
1560.000000	94.212026 
1559.000000	94.200306 
1558.000000	94.155881 
1557.000000	94.139893 
1556.000000	94.141598 
1555.000000	94.136270 
1554.000000	94.122267 
1553.000000	94.110080 
1552.000000	94.105610 
1551.000000	94.107259 
1550.000000	94.110170 
1549.000000	94.114414 
1548.000000	94.126214 
1547.000000	94.144620 
1546.000000	94.163161 
1545.000000	94.177173 
1544.000000	94.188183 
1543.000000	94.204613 
1542.000000	94.232364 
1541.000000	94.261801 
1540.000000	94.275019 
1539.000000	94.275716 
1538.000000	94.279400 
1537.000000	94.280241 
1536.000000	94.281877 
1535.000000	94.291024 
1534.000000	94.301651 
1533.000000	94.302066 
1532.000000	94.300073 
1531.000000	94.305578 
1530.000000	94.305330 
1529.000000	94.284784 
1528.000000	94.244002 
1527.000000	94.184025 
1526.000000	94.098487 
1525.000000	93.989606 
1524.000000	93.862692 
1523.000000	93.675608 
1522.000000	93.321808 
1521.000000	92.767438 
1520.000000	92.157301 
1519.000000	91.528278 
1518.000000	90.694606 
1517.000000	89.497502 
1516.000000	88.075152 
1515.000000	86.709722 
1514.000000	85.437175 
1513.000000	84.158559 
1512.000000	82.916340 
1511.000000	81.879903 
1510.000000	81.141627 
1509.000000	80.684012 
1508.000000	80.522448 
1507.000000	80.753935 
1506.000000	81.357717 
1505.000000	82.139636 
1504.000000	82.981944 
1503.000000	83.870327 
1502.000000	84.799658 
1501.000000	85.750809 
1500.000000	86.696897 
1499.000000	87.607868 
1498.000000	88.461464 
1497.000000	89.237743 
1496.000000	89.906590 
1495.000000	90.443136 
1494.000000	90.851563 
1493.000000	91.165834 
1492.000000	91.435051 
1491.000000	91.696887 
1490.000000	91.942876 
1489.000000	92.133058 
1488.000000	92.270901 
1487.000000	92.391275 
1486.000000	92.495838 
1485.000000	92.569369 
1484.000000	92.614692 
1483.000000	92.639137 
1482.000000	92.633932 
1481.000000	92.585469 
1480.000000	92.505167 
1479.000000	92.410843 
1478.000000	92.291905 
1477.000000	92.128089 
1476.000000	91.933816 
1475.000000	91.740305 
1474.000000	91.524104 
1473.000000	91.221205 
1472.000000	90.848817 
1471.000000	90.515454 
1470.000000	90.254342 
1469.000000	90.024540 
1468.000000	89.803548 
1467.000000	89.592331 
1466.000000	89.382499 
1465.000000	89.166342 
1464.000000	88.977268 
1463.000000	88.857574 
1462.000000	88.797902 
1461.000000	88.765605 
1460.000000	88.748345 
1459.000000	88.744579 
1458.000000	88.739346 
1457.000000	88.719989 
1456.000000	88.729465 
1455.000000	88.802616 
1454.000000	88.914353 
1453.000000	89.041929 
1452.000000	89.178339 
1451.000000	89.318740 
1450.000000	89.455295 
1449.000000	89.581513 
1448.000000	89.697248 
1447.000000	89.808199 
1446.000000	89.918672 
1445.000000	90.026777 
1444.000000	90.127857 
1443.000000	90.220244 
1442.000000	90.304299 
1441.000000	90.381453 
1440.000000	90.452922 
1439.000000	90.517716 
1438.000000	90.573890 
1437.000000	90.621436 
1436.000000	90.669022 
1435.000000	90.729991 
1434.000000	90.804750 
1433.000000	90.884705 
1432.000000	90.966512 
1431.000000	91.051786 
1430.000000	91.142746 
1429.000000	91.236537 
1428.000000	91.326826 
1427.000000	91.410556 
1426.000000	91.488702 
1425.000000	91.561225 
1424.000000	91.619887 
1423.000000	91.659885 
1422.000000	91.688928 
1421.000000	91.708861 
1420.000000	91.707356 
1419.000000	91.676230 
1418.000000	91.635995 
1417.000000	91.608983 
1416.000000	91.591822 
1415.000000	91.580344 
1414.000000	91.582726 
1413.000000	91.607374 
1412.000000	91.652564 
1411.000000	91.712187 
1410.000000	91.784390 
1409.000000	91.866132 
1408.000000	91.948415 
1407.000000	92.024079 
1406.000000	92.093457 
1405.000000	92.159233 
1404.000000	92.217671 
1403.000000	92.266183 
1402.000000	92.309290 
1401.000000	92.349621 
1400.000000	92.383715 
1399.000000	92.408196 
1398.000000	92.429625 
1397.000000	92.453805 
1396.000000	92.472810 
1395.000000	92.477109 
1394.000000	92.473914 
1393.000000	92.474703 
1392.000000	92.469577 
1391.000000	92.442112 
1390.000000	92.385908 
1389.000000	92.296788 
1388.000000	92.166144 
1387.000000	91.999392 
1386.000000	91.831796 
1385.000000	91.699250 
1384.000000	91.613207 
1383.000000	91.577337 
1382.000000	91.597801 
1381.000000	91.669718 
1380.000000	91.772290 
1379.000000	91.881502 
1378.000000	91.982775 
1377.000000	92.071918 
1376.000000	92.148211 
1375.000000	92.209919 
1374.000000	92.257258 
1373.000000	92.296058 
1372.000000	92.329301 
1371.000000	92.350065 
1370.000000	92.347703 
1369.000000	92.315740 
1368.000000	92.250144 
1367.000000	92.148885 
1366.000000	92.012346 
1365.000000	91.842128 
1364.000000	91.649051 
1363.000000	91.471259 
1362.000000	91.374543 
1361.000000	91.409939 
1360.000000	91.575150 
1359.000000	91.827977 
1358.000000	92.115671 
1357.000000	92.392616 
1356.000000	92.629804 
1355.000000	92.817141 
1354.000000	92.958556 
1353.000000	93.064428 
1352.000000	93.146042 
1351.000000	93.212139 
1350.000000	93.266809 
1349.000000	93.313553 
1348.000000	93.354958 
1347.000000	93.391143 
1346.000000	93.420545 
1345.000000	93.442922 
1344.000000	93.459233 
1343.000000	93.470007 
1342.000000	93.475304 
1341.000000	93.475560 
1340.000000	93.470034 
1339.000000	93.457281 
1338.000000	93.440575 
1337.000000	93.427374 
1336.000000	93.421816 
1335.000000	93.422495 
1334.000000	93.425661 
1333.000000	93.428419 
1332.000000	93.429448 
1331.000000	93.428460 
1330.000000	93.426196 
1329.000000	93.424539 
1328.000000	93.424744 
1327.000000	93.425921 
1326.000000	93.425839 
1325.000000	93.423581 
1324.000000	93.418167 
1323.000000	93.407427 
1322.000000	93.389244 
1321.000000	93.361753 
1320.000000	93.321105 
1319.000000	93.261744 
1318.000000	93.181043 
1317.000000	93.081200 
1316.000000	92.965481 
1315.000000	92.835816 
1314.000000	92.695370 
1313.000000	92.550771 
1312.000000	92.410239 
1311.000000	92.279087 
1310.000000	92.156192 
1309.000000	92.034385 
1308.000000	91.905110 
1307.000000	91.763561 
1306.000000	91.609003 
1305.000000	91.442955 
1304.000000	91.268498 
1303.000000	91.092081 
1302.000000	90.922345 
1301.000000	90.766481 
1300.000000	90.629491 
1299.000000	90.516115 
1298.000000	90.430063 
1297.000000	90.371714 
1296.000000	90.339498 
1295.000000	90.332548 
1294.000000	90.350528 
1293.000000	90.392107 
1292.000000	90.455619 
1291.000000	90.540296 
1290.000000	90.645454 
1289.000000	90.769240 
1288.000000	90.908774 
1287.000000	91.060363 
1286.000000	91.219114 
1285.000000	91.378859 
1284.000000	91.532610 
1283.000000	91.673523 
1282.000000	91.796564 
1281.000000	91.899516 
1280.000000	91.981902 
1279.000000	92.042963 
1278.000000	92.081729 
1277.000000	92.098477 
1276.000000	92.095605 
1275.000000	92.076707 
1274.000000	92.044588 
1273.000000	91.999441 
1272.000000	91.938997 
1271.000000	91.860666 
1270.000000	91.763067 
1269.000000	91.645112 
1268.000000	91.504318 
1267.000000	91.336421 
1266.000000	91.135788 
1265.000000	90.895778 
1264.000000	90.610395 
1263.000000	90.276125 
1262.000000	89.891088 
1261.000000	89.454172 
1260.000000	88.968632 
1259.000000	88.444505 
1258.000000	87.893325 
1257.000000	87.322749 
1256.000000	86.741845 
1255.000000	86.166695 
1254.000000	85.613221 
1253.000000	85.089181 
1252.000000	84.600550 
1251.000000	84.158316 
1250.000000	83.770486 
1249.000000	83.435263 
1248.000000	83.149880 
1247.000000	82.916406 
1246.000000	82.731207 
1245.000000	82.579428 
1244.000000	82.448326 
1243.000000	82.335913 
1242.000000	82.240094 
1241.000000	82.151552 
1240.000000	82.064931 
1239.000000	81.985246 
1238.000000	81.916268 
1237.000000	81.854633 
1236.000000	81.802627 
1235.000000	81.774142 
1234.000000	81.779849 
1233.000000	81.817874 
1232.000000	81.885461 
1231.000000	81.986722 
1230.000000	82.122146 
1229.000000	82.283570 
1228.000000	82.466361 
1227.000000	82.674202 
1226.000000	82.906144 
1225.000000	83.151340 
1224.000000	83.402005 
1223.000000	83.660157 
1222.000000	83.927337 
1221.000000	84.199389 
1220.000000	84.475905 
1219.000000	84.763722 
1218.000000	85.066409 
1217.000000	85.379704 
1216.000000	85.701135 
1215.000000	86.035179 
1214.000000	86.385782 
1213.000000	86.751841 
1212.000000	87.132321 
1211.000000	87.528272 
1210.000000	87.937655 
1209.000000	88.354292 
1208.000000	88.772459 
1207.000000	89.186627 
1206.000000	89.586986 
1205.000000	89.960860 
1204.000000	90.298951 
1203.000000	90.596882 
1202.000000	90.851713 
1201.000000	91.059746 
1200.000000	91.216689 
1199.000000	91.317498 
1198.000000	91.355954 
1197.000000	91.325082 
1196.000000	91.218169 
1195.000000	91.029459 
1194.000000	90.753649 
1193.000000	90.385664 
1192.000000	89.923498 
1191.000000	89.372002 
1190.000000	88.741686 
1189.000000	88.045112 
1188.000000	87.299912 
1187.000000	86.533866 
1186.000000	85.780445 
1185.000000	85.072956 
1184.000000	84.451449 
1183.000000	83.969737 
1182.000000	83.684234 
1181.000000	83.636164 
1180.000000	83.844079 
1179.000000	84.295600 
1178.000000	84.938638 
1177.000000	85.695209 
1176.000000	86.490491 
1175.000000	87.266091 
1174.000000	87.978153 
1173.000000	88.599950 
1172.000000	89.126068 
1171.000000	89.566407 
1170.000000	89.934869 
1169.000000	90.243793 
1168.000000	90.504161 
1167.000000	90.725290 
1166.000000	90.913731 
1165.000000	91.073887 
1164.000000	91.209351 
1163.000000	91.322631 
1162.000000	91.414769 
1161.000000	91.486914 
1160.000000	91.541753 
1159.000000	91.582064 
1158.000000	91.608421 
1157.000000	91.619836 
1156.000000	91.616618 
1155.000000	91.601245 
1154.000000	91.576441 
1153.000000	91.543958 
1152.000000	91.505620 
1151.000000	91.463261 
1150.000000	91.415904 
1149.000000	91.358465 
1148.000000	91.285118 
1147.000000	91.193702 
1146.000000	91.087267 
1145.000000	90.974236 
1144.000000	90.868296 
1143.000000	90.783849 
1142.000000	90.726261 
1141.000000	90.687408 
1140.000000	90.652998 
1139.000000	90.611971 
1138.000000	90.557880 
1137.000000	90.486627 
1136.000000	90.397837 
1135.000000	90.296279 
1134.000000	90.187712 
1133.000000	90.074273 
1132.000000	89.956549 
1131.000000	89.837355 
1130.000000	89.719460 
1129.000000	89.601416 
1128.000000	89.478780 
1127.000000	89.347265 
1126.000000	89.202704 
1125.000000	89.042546 
1124.000000	88.872013 
1123.000000	88.705699 
1122.000000	88.558840 
1121.000000	88.439177 
1120.000000	88.348613 
1119.000000	88.285680 
1118.000000	88.242272 
1117.000000	88.205332 
1116.000000	88.167354 
1115.000000	88.130070 
1114.000000	88.094388 
1113.000000	88.053227 
1112.000000	87.998722 
1111.000000	87.930356 
1110.000000	87.851746 
1109.000000	87.765922 
1108.000000	87.678515 
1107.000000	87.599718 
1106.000000	87.536773 
1105.000000	87.489306 
1104.000000	87.455680 
1103.000000	87.436778 
1102.000000	87.429265 
1101.000000	87.422949 
1100.000000	87.408672 
1099.000000	87.384629 
1098.000000	87.348379 
1097.000000	87.291781 
1096.000000	87.207543 
1095.000000	87.094811 
1094.000000	86.955064 
1093.000000	86.789886 
1092.000000	86.606574 
1091.000000	86.417381 
1090.000000	86.227776 
1089.000000	86.033873 
1088.000000	85.837015 
1087.000000	85.651721 
1086.000000	85.493212 
1085.000000	85.366611 
1084.000000	85.273780 
1083.000000	85.217626 
1082.000000	85.191205 
1081.000000	85.174513 
1080.000000	85.150780 
1079.000000	85.116507 
1078.000000	85.070904 
1077.000000	85.008131 
1076.000000	84.926628 
1075.000000	84.833732 
1074.000000	84.733094 
1073.000000	84.618149 
1072.000000	84.484880 
1071.000000	84.339375 
1070.000000	84.185467 
1069.000000	84.016574 
1068.000000	83.827646 
1067.000000	83.623577 
1066.000000	83.408021 
1065.000000	83.175477 
1064.000000	82.922041 
1063.000000	82.652075 
1062.000000	82.366942 
1061.000000	82.059437 
1060.000000	81.726286 
1059.000000	81.372129 
1058.000000	80.992834 
1057.000000	80.569644 
1056.000000	80.089440 
1055.000000	79.556700 
1054.000000	78.977502 
1053.000000	78.349330 
1052.000000	77.678834 
1051.000000	76.990458 
1050.000000	76.301572 
1049.000000	75.610036 
1048.000000	74.921729 
1047.000000	74.262912 
1046.000000	73.648791 
1045.000000	73.067632 
1044.000000	72.510319 
1043.000000	71.986732 
1042.000000	71.498843 
1041.000000	71.026528 
1040.000000	70.556342 
1039.000000	70.097267 
1038.000000	69.653395 
1037.000000	69.209475 
1036.000000	68.757799 
1035.000000	68.309587 
1034.000000	67.865084 
1033.000000	67.402742 
1032.000000	66.913570 
1031.000000	66.414916 
1030.000000	65.913878 
1029.000000	65.389658 
1028.000000	64.829010 
1027.000000	64.245339 
1026.000000	63.646070 
1025.000000	63.017059 
1024.000000	62.358378 
1023.000000	61.700390 
1022.000000	61.065708 
1021.000000	60.450496 
1020.000000	59.861795 
1019.000000	59.334579 
1018.000000	58.889854 
1017.000000	58.514298 
1016.000000	58.201466 
1015.000000	57.972090 
1014.000000	57.834945 
1013.000000	57.773592 
1012.000000	57.793986 
1011.000000	57.940176 
1010.000000	58.237983 
1009.000000	58.660522 
1008.000000	59.166493 
1007.000000	59.731690 
1006.000000	60.327652 
1005.000000	60.913500 
1004.000000	61.471231 
1003.000000	62.015217 
1002.000000	62.551602 
1001.000000	63.061627 
1000.000000	63.536789 
999.000000	 63.994393 
998.000000	 64.444204 
997.000000	 64.872581 
996.000000	 65.273393 
995.000000	 65.663880 
994.000000	 66.056508 
993.000000	 66.443420 
992.000000	 66.820866 
991.000000	 67.200998 
990.000000	 67.587583 
989.000000	 67.967689 
988.000000	 68.338637 
987.000000	 68.716590 
986.000000	 69.108838 
985.000000	 69.503585 
984.000000	 69.895261 
983.000000	 70.293507 
982.000000	 70.699295 
981.000000	 71.098436 
980.000000	 71.487093 
979.000000	 71.878238 
978.000000	 72.274145 
977.000000	 72.656983 
976.000000	 73.015428 
975.000000	 73.357116 
974.000000	 73.686853 
973.000000	 73.995545 
972.000000	 74.278834 
971.000000	 74.544730 
970.000000	 74.794441 
969.000000	 75.015778 
968.000000	 75.202774 
967.000000	 75.362404 
966.000000	 75.495407 
965.000000	 75.590649 
964.000000	 75.645838 
963.000000	 75.673835 
962.000000	 75.680442 
961.000000	 75.655764 
960.000000	 75.595671 
959.000000	 75.511239 
958.000000	 75.407551 
957.000000	 75.273150 
956.000000	 75.101194 
955.000000	 74.902229 
954.000000	 74.685477 
953.000000	 74.446044 
952.000000	 74.181222 
951.000000	 73.900143 
950.000000	 73.605593 
949.000000	 73.286237 
948.000000	 72.939515 
947.000000	 72.582734 
946.000000	 72.229108 
945.000000	 71.872606 
944.000000	 71.508506 
943.000000	 71.147454 
942.000000	 70.796049 
941.000000	 70.445007 
940.000000	 70.090296 
939.000000	 69.744813 
938.000000	 69.416187 
937.000000	 69.095394 
936.000000	 68.779865 
935.000000	 68.482625 
934.000000	 68.203912 
933.000000	 67.918065 
932.000000	 67.601721 
931.000000	 67.249825 
930.000000	 66.853994 
929.000000	 66.400649 
928.000000	 65.915862 
927.000000	 65.488284 
926.000000	 65.220876 
925.000000	 65.169165 
924.000000	 65.328052 
923.000000	 65.641821 
922.000000	 66.009253 
921.000000	 66.314512 
920.000000	 66.479947 
919.000000	 66.479211 
918.000000	 66.301967 
917.000000	 65.937721 
916.000000	 65.403784 
915.000000	 64.757379 
914.000000	 64.060411 
913.000000	 63.353207 
912.000000	 62.672323 
911.000000	 62.057257 
910.000000	 61.515108 
909.000000	 61.010496 
908.000000	 60.515336 
907.000000	 60.043298 
906.000000	 59.625301 
905.000000	 59.293285 
904.000000	 59.106376 
903.000000	 59.142730 
902.000000	 59.427489 
901.000000	 59.896787 
900.000000	 60.451042 
899.000000	 61.008093 
898.000000	 61.495568 
897.000000	 61.844972 
896.000000	 62.025678 
895.000000	 62.056222 
894.000000	 61.961575 
893.000000	 61.746026 
892.000000	 61.423112 
891.000000	 61.038882 
890.000000	 60.644639 
889.000000	 60.276961 
888.000000	 59.982862 
887.000000	 59.826791 
886.000000	 59.844863 
885.000000	 60.021614 
884.000000	 60.329515 
883.000000	 60.752438 
882.000000	 61.251487 
881.000000	 61.747828 
880.000000	 62.159515 
879.000000	 62.422182 
878.000000	 62.470784 
877.000000	 62.259448 
876.000000	 61.832772 
875.000000	 61.342463 
874.000000	 60.959675 
873.000000	 60.786476 
872.000000	 60.853097 
871.000000	 61.142382 
870.000000	 61.589753 
869.000000	 62.111793 
868.000000	 62.670008 
867.000000	 63.279119 
866.000000	 63.943985 
865.000000	 64.622431 
864.000000	 65.249716 
863.000000	 65.752210 
862.000000	 66.031115 
861.000000	 65.988469 
860.000000	 65.603656 
859.000000	 64.966516 
858.000000	 64.226180 
857.000000	 63.531906 
856.000000	 63.019237 
855.000000	 62.784964 
854.000000	 62.822720 
853.000000	 63.012034 
852.000000	 63.201953 
851.000000	 63.285195 
850.000000	 63.196634 
849.000000	 62.902372 
848.000000	 62.426725 
847.000000	 61.858250 
846.000000	 61.300023 
845.000000	 60.834256 
844.000000	 60.541105 
843.000000	 60.496283 
842.000000	 60.712292 
841.000000	 61.117570 
840.000000	 61.617443 
839.000000	 62.140926 
838.000000	 62.621096 
837.000000	 62.986071 
836.000000	 63.199189 
835.000000	 63.273804 
834.000000	 63.229304 
833.000000	 63.066222 
832.000000	 62.801811 
831.000000	 62.490682 
830.000000	 62.185133 
829.000000	 61.911853 
828.000000	 61.714331 
827.000000	 61.675184 
826.000000	 61.858386 
825.000000	 62.265272 
824.000000	 62.873159 
823.000000	 63.663079 
822.000000	 64.582535 
821.000000	 65.542460 
820.000000	 66.480020 
819.000000	 67.380568 
818.000000	 68.231520 
817.000000	 69.002379 
816.000000	 69.679737 
815.000000	 70.279947 
814.000000	 70.812057 
813.000000	 71.261316 
812.000000	 71.623188 
811.000000	 71.922080 
810.000000	 72.182145 
809.000000	 72.408826 
808.000000	 72.612905 
807.000000	 72.822572 
806.000000	 73.055647 
805.000000	 73.307460 
804.000000	 73.579975 
803.000000	 73.892948 
802.000000	 74.251437 
801.000000	 74.630673 
800.000000	 75.007734 
799.000000	 75.381657 
798.000000	 75.750195 
797.000000	 76.094753 
796.000000	 76.402619 
795.000000	 76.679684 
794.000000	 76.929038 
793.000000	 77.140559 
792.000000	 77.312814 
791.000000	 77.461128 
790.000000	 77.592560 
789.000000	 77.696081 
788.000000	 77.768305 
787.000000	 77.825159 
786.000000	 77.875931 
785.000000	 77.908613 
784.000000	 77.913382 
783.000000	 77.897921 
782.000000	 77.866645 
781.000000	 77.806877 
780.000000	 77.709924 
779.000000	 77.586789 
778.000000	 77.451688 
777.000000	 77.309964 
776.000000	 77.171931 
775.000000	 77.055487 
774.000000	 76.963318 
773.000000	 76.879925 
772.000000	 76.801553 
771.000000	 76.745244 
770.000000	 76.718962 
769.000000	 76.709222 
768.000000	 76.709159 
767.000000	 76.730867 
766.000000	 76.777116 
765.000000	 76.828410 
764.000000	 76.871765 
763.000000	 76.915925 
762.000000	 76.965840 
761.000000	 77.009178 
760.000000	 77.040779 
759.000000	 77.073087 
758.000000	 77.109276 
757.000000	 77.133535 
756.000000	 77.141637 
755.000000	 77.153202 
754.000000	 77.178962 
753.000000	 77.203321 
752.000000	 77.214479 
751.000000	 77.224191 
750.000000	 77.242624 
749.000000	 77.261564 
748.000000	 77.277456 
747.000000	 77.302925 
746.000000	 77.339534 
745.000000	 77.365452 
744.000000	 77.364929 
743.000000	 77.343096 
742.000000	 77.298267 
741.000000	 77.209755 
740.000000	 77.071105 
739.000000	 76.908549 
738.000000	 76.750683 
737.000000	 76.606953 
736.000000	 76.487386 
735.000000	 76.408687 
734.000000	 76.362050 
733.000000	 76.305962 
732.000000	 76.210961 
731.000000	 76.085734 
730.000000	 75.946828 
729.000000	 75.795322 
728.000000	 75.642487 
727.000000	 75.522535 
726.000000	 75.452898 
725.000000	 75.413816 
724.000000	 75.386467 
723.000000	 75.376556 
722.000000	 75.383690 
721.000000	 75.386395 
720.000000	 75.379510 
719.000000	 75.387072 
718.000000	 75.414444 
717.000000	 75.432244 
716.000000	 75.424449 
715.000000	 75.410135 
714.000000	 75.400377 
713.000000	 75.373200 
712.000000	 75.317087 
711.000000	 75.256553 
710.000000	 75.206517 
709.000000	 75.142995 
708.000000	 75.048257 
707.000000	 74.945121 
706.000000	 74.853775 
705.000000	 74.757221 
704.000000	 74.642022 
703.000000	 74.525816 
702.000000	 74.414189 
701.000000	 74.277202 
700.000000	 74.098906 
699.000000	 73.905736 
698.000000	 73.709384 
697.000000	 73.474064 
696.000000	 73.181133 
695.000000	 72.868302 
694.000000	 72.569960 
693.000000	 72.273674 
692.000000	 71.972763 
691.000000	 71.705668 
690.000000	 71.490073 
689.000000	 71.279357 
688.000000	 71.040978 
687.000000	 70.810667 
686.000000	 70.611437 
685.000000	 70.395394 
684.000000	 70.124792 
683.000000	 69.830182 
682.000000	 69.532675 
681.000000	 69.193755 
680.000000	 68.796324 
679.000000	 68.386066 
678.000000	 67.972565 
677.000000	 67.476507 
676.000000	 66.852521 
675.000000	 66.141080 
674.000000	 65.363762 
673.000000	 64.512888 
672.000000	 63.681574 
671.000000	 63.038712 
670.000000	 62.632736 
669.000000	 62.298326 
668.000000	 61.872339 
667.000000	 61.515508 
666.000000	 61.442685 
665.000000	 61.673254 
664.000000	 62.089962 
663.000000	 62.606675 
662.000000	 63.144789 
661.000000	 63.622779 
660.000000	 64.017723 
659.000000	 64.365777 
658.000000	 64.683117 
657.000000	 64.934315 
656.000000	 65.118157 
655.000000	 65.298335 
654.000000	 65.513194 
653.000000	 65.723417 
652.000000	 65.895458 
651.000000	 66.059608 
650.000000	 66.239736 
649.000000	 66.400278 
648.000000	 66.525699 
647.000000	 66.670850 
646.000000	 66.864135 
645.000000	 67.050352 
644.000000	 67.186283 
643.000000	 67.306762 
642.000000	 67.446579 
641.000000	 67.572286 
640.000000	 67.659358 
639.000000	 67.758978 
638.000000	 67.911460 
637.000000	 68.073907 
636.000000	 68.215848 
635.000000	 68.387341 
634.000000	 68.612399 
633.000000	 68.816605 
632.000000	 68.943803 
631.000000	 69.043990 
630.000000	 69.175122 
629.000000	 69.306825 
628.000000	 69.404725 
627.000000	 69.521133 
626.000000	 69.706237 
625.000000	 69.906635 
624.000000	 70.054316 
623.000000	 70.175486 
622.000000	 70.315666 
621.000000	 70.439182 
620.000000	 70.502261 
619.000000	 70.537089 
618.000000	 70.579224 
617.000000	 70.607035 
616.000000	 70.643284 
615.000000	 70.771052 
614.000000	 70.965463 
613.000000	 71.092125 
612.000000	 71.123069 
611.000000	 71.179146 
610.000000	 71.312390 
609.000000	 71.427849 
608.000000	 71.493696 
607.000000	 71.617828 
606.000000	 71.832260 
605.000000	 72.005301 
604.000000	 72.060567 
603.000000	 72.076786 
602.000000	 72.106084 
601.000000	 72.081389 
600.000000	 71.989449 
599.000000	 71.952599 
598.000000	 72.034394 
597.000000	 72.128162 
596.000000	 72.149229 
595.000000	 72.158105 
594.000000	 72.195434 
593.000000	 72.178409 
592.000000	 72.094851 
591.000000	 72.104819 
590.000000	 72.281598 
589.000000	 72.454897 
588.000000	 72.486824 
587.000000	 72.448358 
586.000000	 72.405260 
585.000000	 72.263691 
584.000000	 72.019309 
583.000000	 71.909586 
582.000000	 72.045870 
581.000000	 72.156559 
580.000000	 72.046684 
579.000000	 71.961309 
578.000000	 72.136848 
577.000000	 72.317378 
576.000000	 72.199613 
575.000000	 71.959340 
574.000000	 71.905366 
573.000000	 71.910908 
572.000000	 71.743528 
571.000000	 71.518338 
570.000000	 71.404583 
569.000000	 71.270926 
568.000000	 71.042792 
567.000000	 70.964483 
566.000000	 71.091754 
565.000000	 71.027437 
564.000000	 70.612247 
563.000000	 70.277265 
562.000000	 70.353731 
561.000000	 70.517177 
560.000000	 70.469923 
559.000000	 70.441360 
558.000000	 70.589824 
557.000000	 70.537530 
556.000000	 70.064394 
555.000000	 69.613791 
554.000000	 69.615477 
553.000000	 69.788478 
552.000000	 69.838171 
551.000000	 70.052494 
550.000000	 70.591736 

